"Wavelength (A)" Specta "Best Fitting Model" "Non-parm Extinction Curve" "Non-param Adjusted Continuum"
4051.13 0.662954 0.300233 0.0 0.823488
4051.46 0.660572 0.356198 0.0 0.823936
4051.79 0.655473 0.407104 0.0 0.824383
4052.13 0.648181 0.450811 0.0 0.82483
4052.46 0.64252 0.487981 0.0 0.825277
4052.79 0.642357 0.520413 0.0 0.825725
4053.12 0.646514 0.548812 0.0 0.826172
4053.45 0.649605 0.572479 0.0 0.826618
4053.78 0.64704 0.589895 0.0 0.827065
4054.12 0.639948 0.600369 0.0 0.827512
4054.45 0.631645 0.604882 0.0 0.827958
4054.78 0.624451 0.605397 0.0 0.828404
4055.11 0.61806 0.603716 0.0 0.82885
4055.44 0.611753 0.60118 0.0 0.829296
4055.77 0.605274 0.598449 0.0 0.829742
4056.11 0.598914 0.595757 0.0 0.830187
4056.44 0.593017 0.593156 0.0 0.830632
4056.77 0.588101 0.590627 0.0 0.831076
4057.1 0.584784 0.588232 0.0 0.83152
4057.43 0.583577 0.586237 0.0 0.831964
4057.77 0.58458 0.585049 0.0 0.832408
4058.1 0.587783 0.58502 0.0 0.832851
4058.43 0.592843 0.586328 0.0 0.833293
4058.76 0.598834 0.588947 0.0 0.833736
4059.09 0.604769 0.592647 0.0 0.834177
4059.43 0.609541 0.597052 0.713484 0.834619
4059.76 0.611954 0.601588 0.709587 0.835059
4060.09 0.611269 0.605642 0.708244 0.8355
4060.42 0.609456 0.608584 0.707267 0.835939
4060.76 0.609464 0.609833 0.706847 0.836379
4061.09 0.612293 0.608909 0.709233 0.836817
4061.42 0.614158 0.605539 0.711632 0.837255
4061.75 0.610671 0.599808 0.71509 0.837692
4062.08 0.600887 0.592194 0.719829 0.838129
4062.42 0.587715 0.583459 0.724615 0.838565
4062.75 0.574186 0.574502 0.729696 0.839
4063.08 0.562587 0.566235 0.734915 0.839435
4063.41 0.554823 0.559448 0.739991 0.839869
4063.75 0.552189 0.554735 0.740506 0.840302
4064.08 0.553825 0.552443 0.741022 0.840735
4064.41 0.558399 0.552658 0.74012 0.841166
4064.74 0.564599 0.554526 0.73642 0.841597
4065.08 0.57115 0.558154 0.732748 0.842027
4065.41 0.576855 0.563096 0.728369 0.842456
4065.74 0.581532 0.568967 0.723601 0.842884
4066.07 0.585724 0.575508 0.718879 0.843312
4066.41 0.589936 0.582575 0.714948 0.843738
4066.74 0.594387 0.590092 0.71111 0.844164
4067.07 0.599206 0.597967 0.707594 0.844589
4067.41 0.604075 0.606028 0.705138 0.845012
4067.74 0.607724 0.613991 0.702696 0.845435
4068.07 0.608875 0.621469 0.700882 0.845857
4068.4 0.608662 0.628018 0.699656 0.846277
4068.74 0.610553 0.633201 0.698434 0.846697
4069.07 0.617442 0.636647 0.695376 0.847115
4069.4 0.627411 0.638113 0.691911 0.847533
4069.74 0.636444 0.63753 0.688462 0.847949
4070.07 0.641356 0.635036 0.684961 0.848364
4070.4 0.641408 0.630985 0.681487 0.848778
4070.73 0.63634 0.625941 0.681239 0.849191
4071.07 0.627282 0.620612 0.685753 0.849603
4071.4 0.617151 0.615755 0.690312 0.850014
4071.73 0.608824 0.612048 0.694239 0.850423
4072.07 0.603576 0.609965 0.697909 0.850831
4072.4 0.60174 0.609696 0.701606 0.851238
4072.73 0.603294 0.611114 0.699859 0.851643
4073.07 0.606844 0.613818 0.698118 0.852047
4073.4 0.610663 0.617225 0.696047 0.85245
4073.73 0.61372 0.620675 0.693205 0.852852
4074.07 0.616168 0.623526 0.69038 0.853252
4074.4 0.618266 0.625228 0.688315 0.853651
4074.73 0.620136 0.625373 0.686754 0.854048
4075.07 0.621791 0.623728 0.685198 0.854444
4075.4 0.62311 0.620268 0.684739 0.854838
4075.73 0.623246 0.615195 0.684403 0.855231
4076.07 0.621106 0.608948 0.68513 0.855623
4076.4 0.61603 0.60217 0.690122 0.856013
4076.73 0.608318 0.595646 0.69517 0.856401
4077.07 0.598476 0.590197 0.699882 0.856788
4077.4 0.588809 0.586567 0.70425 0.857174
4077.73 0.58341 0.585326 0.70866 0.857557
4078.07 0.585762 0.586802 0.70905 0.85794
4078.4 0.59435 0.591063 0.708457 0.85832
4078.74 0.605446 0.597938 0.707733 0.858699
4079.07 0.615979 0.607058 0.705912 0.859076
4079.4 0.624826 0.617905 0.704099 0.859452
4079.74 0.631251 0.629859 0.701569 0.859826
4080.07 0.635882 0.642236 0.698022 0.860198
4080.4 0.641063 0.654329 0.694501 0.860568
4080.74 0.648986 0.665455 0.689383 0.860937
4081.07 0.659258 0.675016 0.683679 0.861304
4081.41 0.670018 0.682563 0.678123 0.861668
4081.74 0.679584 0.68784 0.676515 0.862032
4082.07 0.687025 0.690811 0.674913 0.862393
4082.41 0.691581 0.691646 0.674854 0.862752
4082.74 0.692458 0.690684 0.678016 0.86311
4083.08 0.688802 0.688381 0.681201 0.863466
4083.41 0.680138 0.685253 0.682555 0.863819
4083.74 0.671113 0.681836 0.682826 0.864171
4084.08 0.670017 0.678646 0.683096 0.864521
4084.41 0.682448 0.676155 0.678698 0.864869
4084.75 0.70055 0.674767 0.674029 0.865214
4085.08 0.712447 0.674789 0.670733 0.865558
4085.42 0.712479 0.676404 0.671583 0.8659
4085.75 0.707311 0.679658 0.672435 0.86624
4086.08 0.704791 0.684458 0.671707 0.866577
4086.42 0.707871 0.690585 0.669697 0.866912
4086.75 0.715213 0.697713 0.667696 0.867246
4087.09 0.724952 0.705444 0.664362 0.867577
4087.42 0.732888 0.713338 0.660835 0.867906
4087.76 0.733944 0.72094 0.658089 0.868233
4088.09 0.726472 0.727812 0.659104 0.868557
4088.42 0.717208 0.733565 0.660122 0.86888
4088.76 0.713899 0.737887 0.662045 0.8692
4089.09 0.717678 0.740576 0.664975 0.869518
4089.43 0.722651 0.741558 0.667924 0.869833
4089.76 0.723232 0.740901 0.673031 0.870146
4090.1 0.718828 0.738792 0.678785 0.870457
4090.43 0.711174 0.735505 0.684483 0.870766
4090.77 0.702088 0.731356 0.689021 0.871072
4091.1 0.6936 0.72667 0.693605 0.871376
4091.44 0.687729 0.721753 0.696729 0.871677
4091.77 0.684571 0.716869 0.697682 0.871976
4092.11 0.681778 0.712215 0.698638 0.872272
4092.44 0.677166 0.707892 0.700018 0.872566
4092.78 0.671661 0.703882 0.701568 0.872858
4093.11 0.667932 0.700026 0.703139 0.873147
4093.45 0.667899 0.696051 0.705183 0.873433
4093.78 0.670705 0.691633 0.707237 0.873717
4094.12 0.674845 0.686484 0.709491 0.873999
4094.45 0.678175 0.680443 0.71212 0.874277
4094.79 0.677579 0.67352 0.714764 0.874554
4095.12 0.670189 0.665904 0.718905 0.874827
4095.46 0.65701 0.657902 0.72386 0.875098
4095.79 0.64161 0.649863 0.728867 0.875367
4096.13 0.627414 0.642108 0.736835 0.875633
4096.46 0.617044 0.634867 0.745019 0.875896
4096.8 0.612874 0.628254 0.751293 0.876157
4097.13 0.614923 0.622253 0.752528 0.876416
4097.47 0.619072 0.616737 0.753766 0.876672
4097.8 0.620964 0.611487 0.75489 0.876926
4098.14 0.618951 0.606227 0.75594 0.877177
4098.47 0.613464 0.600662 0.756993 0.877425
4098.81 0.605101 0.594518 0.761617 0.877672
4099.14 0.59506 0.587601 0.766608 0.877915
4099.48 0.584731 0.57984 0.771855 0.878157
4099.81 0.575414 0.571334 0.777842 0.878396
4100.15 0.568225 0.56238 0.7839 0.878633
4100.48 0.564173 0.553453 0.788353 0.878867
4100.82 0.562703 0.545161 0.791472 0.879099
4101.16 0.561895 0.538152 0.79461 0.879329
4101.49 0.560038 0.533025 0.797616 0.879556
4101.83 0.556953 0.530239 0.800616 0.879781
4102.16 0.55303 0.530056 0.803636 0.880004
4102.5 0.549487 0.532529 0.806684 0.880224
4102.83 0.54946 0.537527 0.809749 0.880443
4103.17 0.556161 0.544783 0.806014 0.880658
4103.51 0.56847 0.553944 0.795769 0.880872
4103.84 0.580993 0.564617 0.785718 0.881084
4104.18 0.589037 0.57639 0.783607 0.881293
4104.51 0.593938 0.588841 0.783157 0.8815
4104.85 0.599553 0.601536 0.781526 0.881705
4105.18 0.608469 0.614037 0.773008 0.881907
4105.52 0.619937 0.625922 0.764628 0.882108
4105.86 0.632668 0.636818 0.756937 0.882306
4106.19 0.645372 0.646434 0.749989 0.882502
4106.53 0.656757 0.654584 0.743136 0.882696
4106.86 0.665607 0.661188 0.739793 0.882888
4107.2 0.671311 0.666249 0.737399 0.883078
4107.54 0.673541 0.669827 0.735274 0.883266
4107.87 0.672472 0.672013 0.735275 0.883451
4108.21 0.669735 0.672921 0.735276 0.883635
4108.54 0.66721 0.672697 0.734618 0.883816
4108.88 0.666294 0.671533 0.733092 0.883996
4109.22 0.6678 0.669683 0.731571 0.884173
4109.55 0.672286 0.667457 0.727843 0.884349
4109.89 0.678387 0.665196 0.723427 0.884522
4110.23 0.683754 0.663231 0.719182 0.884694
4110.56 0.686979 0.661843 0.716546 0.884863
4110.9 0.689672 0.661243 0.713924 0.885031
4111.23 0.693977 0.661554 0.713212 0.885196
4111.57 0.699572 0.662823 0.715348 0.88536
4111.91 0.702939 0.665033 0.717493 0.885521
4112.24 0.700873 0.668114 0.717988 0.885681
4112.58 0.695176 0.671955 0.717856 0.885839
4112.92 0.690411 0.676409 0.717607 0.885995
4113.25 0.689937 0.681306 0.715164 0.886149
4113.59 0.692857 0.686463 0.712734 0.886301
4113.93 0.697372 0.691698 0.710116 0.886451
4114.26 0.702024 0.696834 0.707186 0.8866
4114.6 0.705833 0.701698 0.704274 0.886747
4114.94 0.707967 0.706107 0.702537 0.886891
4115.27 0.708763 0.70986 0.701296 0.887035
4115.61 0.709246 0.712743 0.700121 0.887176
4115.95 0.710159 0.71455 0.700994 0.887315
4116.28 0.711187 0.71511 0.701869 0.887453
4116.62 0.711777 0.714332 0.702844 0.887589
4116.96 0.711444 0.712239 0.703999 0.887723
4117.29 0.709807 0.708982 0.705158 0.887856
4117.63 0.706563 0.704848 0.705739 0.887987
4117.97 0.702178 0.700223 0.706056 0.888116
4118.3 0.697593 0.695545 0.70645 0.888243
4118.64 0.693496 0.691226 0.712405 0.888369
4118.98 0.689578 0.687585 0.718436 0.888493
4119.32 0.6853 0.684797 0.723697 0.888615
4119.65 0.680577 0.682886 0.727379 0.888736
4119.99 0.676013 0.681754 0.731091 0.888855
4120.33 0.672255 0.681241 0.733616 0.888973
4120.66 0.669785 0.68119 0.735562 0.889089
4121.0 0.668982 0.681486 0.737508 0.889203
4121.34 0.669971 0.682071 0.736896 0.889316
4121.68 0.671893 0.68294 0.736284 0.889427
4122.01 0.673649 0.684111 0.735447 0.889537
4122.35 0.674575 0.685611 0.734163 0.889645
4122.69 0.674681 0.687456 0.732881 0.889751
4123.02 0.674114 0.689654 0.732399 0.889856
4123.36 0.673987 0.692189 0.732317 0.88996
4123.7 0.676037 0.694995 0.732234 0.890062
4124.04 0.681372 0.697939 0.730213 0.890163
4124.37 0.688542 0.700823 0.728197 0.890262
4124.71 0.69546 0.703398 0.726553 0.89036
4125.05 0.700491 0.705411 0.725647 0.890456
4125.39 0.70271 0.706651 0.724743 0.890551
4125.72 0.701426 0.706989 0.725845 0.890644
4126.06 0.69799 0.706397 0.727967 0.890736
4126.4 0.695078 0.704938 0.730099 0.890827
4126.74 0.694648 0.702736 0.730419 0.890916
4127.07 0.695673 0.699953 0.730736 0.891004
4127.41 0.696388 0.696763 0.730435 0.891091
4127.75 0.695714 0.693331 0.728897 0.891176
4128.09 0.693645 0.689789 0.727363 0.89126
4128.43 0.690285 0.686225 0.728867 0.891343
4128.76 0.686002 0.682666 0.731895 0.891424
4129.1 0.681331 0.679076 0.734961 0.891504
4129.44 0.676614 0.675367 0.743063 0.891583
4129.78 0.67142 0.671409 0.751302 0.89166
4130.11 0.665142 0.667061 0.75829 0.891737
4130.45 0.658067 0.662205 0.762653 0.891812
4130.79 0.651844 0.656801 0.767053 0.891885
4131.13 0.648063 0.650935 0.770901 0.891958
4131.47 0.646343 0.644843 0.774493 0.892029
4131.8 0.645068 0.638893 0.778076 0.8921
4132.14 0.643092 0.633535 0.779279 0.892169
4132.48 0.641161 0.629213 0.780485 0.892237
4132.82 0.64046 0.626296 0.781036 0.892303
4133.16 0.641686 0.625036 0.780377 0.892369
4133.5 0.644806 0.625578 0.779719 0.892434
4133.83 0.649689 0.627983 0.77721 0.892497
4134.17 0.655742 0.632242 0.773891 0.892559
4134.51 0.662091 0.638251 0.770549 0.89262
4134.85 0.667948 0.645783 0.76579 0.892681
4135.19 0.672834 0.654463 0.761076 0.89274
4135.53 0.67635 0.663791 0.757063 0.892798
4135.86 0.678432 0.673215 0.754198 0.892855
4136.2 0.679491 0.682238 0.751349 0.892911
4136.54 0.679982 0.690504 0.750458 0.892966
4136.88 0.68047 0.697837 0.750361 0.89302
4137.22 0.681581 0.704208 0.750067 0.893073
4137.56 0.68387 0.709674 0.746088 0.893125
4137.89 0.687643 0.714292 0.742141 0.893176
4138.23 0.693133 0.718075 0.738789 0.893226
4138.57 0.699759 0.720971 0.736328 0.893276
4138.91 0.705864 0.722872 0.733878 0.893324
4139.25 0.709784 0.723628 0.73364 0.893371
4139.59 0.710464 0.72306 0.7342 0.893418
4139.93 0.707179 0.720963 0.735018 0.893463
4140.26 0.699893 0.717123 0.738928 0.893508
4140.6 0.690744 0.711357 0.74287 0.893552
4140.94 0.682264 0.703566 0.747014 0.893595
4141.28 0.675687 0.693811 0.75143 0.893638
4141.62 0.670642 0.682362 0.755886 0.893679
4141.96 0.666569 0.669722 0.760544 0.89372
4142.3 0.662145 0.656602 0.765298 0.893759
4142.64 0.655675 0.643852 0.770177 0.893798
4142.98 0.646343 0.632364 0.775777 0.893837
4143.31 0.635905 0.622949 0.781438 0.893874
4143.65 0.62659 0.616241 0.786338 0.893911
4143.99 0.620898 0.612613 0.790283 0.893947
4144.33 0.621641 0.612148 0.794257 0.893982
4144.67 0.630745 0.614641 0.792493 0.894017
4145.01 0.643446 0.619654 0.789297 0.894051
4145.35 0.651973 0.626586 0.786296 0.894084
4145.69 0.651784 0.634761 0.784345 0.894117
4146.03 0.646812 0.643491 0.782401 0.894149
4146.37 0.642266 0.652134 0.780683 0.89418
4146.71 0.641266 0.660122 0.779197 0.894211
4147.05 0.644791 0.666996 0.777714 0.894241
4147.38 0.65332 0.672422 0.772433 0.89427
4147.72 0.664699 0.676213 0.766485 0.894299
4148.06 0.675718 0.678345 0.76088 0.894327
4148.4 0.683874 0.678946 0.756526 0.894355
4148.74 0.688311 0.678281 0.752209 0.894382
4149.08 0.688477 0.676703 0.750505 0.894409
4149.42 0.685148 0.674592 0.751048 0.894435
4149.76 0.68032 0.672285 0.751593 0.894461
4150.1 0.675683 0.670025 0.752484 0.894486
4150.44 0.670949 0.667937 0.753423 0.89451
4150.78 0.665138 0.666047 0.755573 0.894534
4151.12 0.658152 0.664318 0.761743 0.894558
4151.46 0.651689 0.662698 0.767988 0.894581
4151.8 0.647608 0.66115 0.770599 0.894604
4152.14 0.646766 0.659656 0.770578 0.894626
4152.48 0.649221 0.658196 0.770557 0.894648
4152.82 0.654583 0.656745 0.766847 0.894669
4153.16 0.660389 0.655268 0.762906 0.89469
4153.5 0.663567 0.653755 0.76062 0.894711
4153.84 0.662938 0.652238 0.762415 0.894731
4154.18 0.66066 0.650795 0.764216 0.894751
4154.52 0.659129 0.649539 0.765157 0.894771
4154.86 0.659437 0.648586 0.765607 0.89479
4155.2 0.661762 0.648044 0.766057 0.894809
4155.54 0.665818 0.648016 0.763183 0.894828
4155.88 0.669488 0.648608 0.760291 0.894846
4156.22 0.67022 0.649941 0.758553 0.894864
4156.56 0.667632 0.652132 0.759001 0.894882
4156.9 0.664622 0.655256 0.759449 0.894899
4157.24 0.664157 0.659301 0.758864 0.894917
4157.58 0.667083 0.664148 0.75783 0.894934
4157.92 0.672978 0.669598 0.756618 0.89495
4158.26 0.681044 0.675417 0.752034 0.894967
4158.6 0.689247 0.681384 0.747491 0.894984
4158.94 0.695342 0.687323 0.743868 0.895
4159.28 0.699 0.693114 0.741554 0.895016
4159.62 0.702362 0.698671 0.739251 0.895032
4159.96 0.707477 0.703927 0.736541 0.895048
4160.3 0.714288 0.70883 0.733714 0.895063
4160.64 0.721684 0.713345 0.731167 0.895079
4160.98 0.728369 0.717454 0.730626 0.895094
4161.32 0.732548 0.721146 0.730086 0.89511
4161.66 0.732412 0.724391 0.731068 0.895125
4162.0 0.728046 0.727127 0.733757 0.89514
4162.34 0.72158 0.729256 0.736461 0.895155
4162.68 0.715302 0.730663 0.738869 0.89517
4163.02 0.711911 0.731244 0.741226 0.895185
4163.36 0.714264 0.730941 0.742314 0.8952
4163.7 0.72248 0.729748 0.737875 0.895215
4164.05 0.730344 0.727707 0.733476 0.89523
4164.39 0.73108 0.72488 0.733947 0.895245
4164.73 0.724199 0.721338 0.738484 0.89526
4165.07 0.714793 0.717147 0.743064 0.895275
4165.41 0.707265 0.712393 0.7484 0.895291
4165.75 0.701268 0.707216 0.753872 0.895306
4166.09 0.694888 0.701837 0.759046 0.895321
4166.43 0.68755 0.696569 0.763267 0.895336
4166.77 0.681191 0.691788 0.767523 0.895352
4167.11 0.677897 0.687867 0.769938 0.895368
4167.45 0.678057 0.685099 0.771226 0.895383
4167.79 0.680829 0.683607 0.772519 0.895399
4168.14 0.685032 0.683302 0.772207 0.895415
4168.48 0.688187 0.683882 0.771868 0.895431
4168.82 0.68751 0.684899 0.772066 0.895448
4169.16 0.682264 0.685834 0.773284 0.895464
4169.5 0.674794 0.686188 0.774505 0.895481
4169.84 0.667578 0.685532 0.777698 0.895498
4170.18 0.661867 0.683547 0.781736 0.895515
4170.52 0.658196 0.680044 0.785686 0.895533
4170.86 0.656842 0.674984 0.788027 0.895551
4171.21 0.657276 0.668508 0.790378 0.895569
4171.55 0.658773 0.660948 0.792522 0.895587
4171.89 0.659785 0.652808 0.794385 0.895605
4172.23 0.657777 0.644707 0.796256 0.895624
4172.57 0.650676 0.637284 0.800503 0.895643
4172.91 0.640372 0.631094 0.805405 0.895663
4173.25 0.630553 0.626525 0.810201 0.895683
4173.6 0.623997 0.623749 0.814225 0.895703
4173.94 0.621158 0.622731 0.818279 0.895723
4174.28 0.622076 0.623266 0.820247 0.895744
4174.62 0.625586 0.62504 0.820287 0.895766
4174.96 0.629387 0.627688 0.820328 0.895787
4175.3 0.631693 0.630841 0.817811 0.89581
4175.64 0.633862 0.634162 0.814984 0.895832
4175.99 0.638331 0.637377 0.812674 0.895855
4176.33 0.645544 0.640303 0.811854 0.895879
4176.67 0.652101 0.642873 0.811035 0.895903
4177.01 0.654433 0.645133 0.811359 0.895927
4177.35 0.652729 0.647222 0.812389 0.895952
4177.7 0.649924 0.649322 0.81342 0.895977
4178.04 0.648498 0.651594 0.813184 0.896003
4178.38 0.648749 0.65412 0.812929 0.89603
4178.72 0.650404 0.656875 0.812335 0.896057
4179.06 0.653084 0.659724 0.81112 0.896084
4179.4 0.656254 0.662462 0.809907 0.896112
4179.75 0.659389 0.664853 0.807723 0.896141
4180.09 0.662191 0.666702 0.805172 0.89617
4180.43 0.664489 0.667905 0.802595 0.8962
4180.77 0.666201 0.66848 0.799639 0.896231
4181.11 0.66752 0.668582 0.796699 0.896262
4181.46 0.668694 0.66848 0.794561 0.896293
4181.8 0.669978 0.668502 0.79336 0.896326
4182.14 0.671645 0.668971 0.79216 0.896359
4182.48 0.673721 0.670132 0.793864 0.896393
4182.83 0.674595 0.672107 0.796179 0.896427
4183.17 0.671987 0.674868 0.798258 0.896462
4183.51 0.666138 0.678238 0.799336 0.896497
4183.85 0.662965 0.681911 0.800417 0.896533
4184.19 0.668671 0.685482 0.80021 0.89657
4184.54 0.681141 0.688497 0.799025 0.896607
4184.88 0.691307 0.690513 0.797844 0.896645
4185.22 0.691983 0.691176 0.797498 0.896683
4185.56 0.686052 0.690306 0.797205 0.896722
4185.91 0.67939 0.687961 0.796843 0.896761
4186.25 0.676155 0.684454 0.796327 0.896801
4186.59 0.677681 0.680302 0.795812 0.896842
4186.93 0.684619 0.676131 0.795806 0.896883
4187.28 0.693028 0.672541 0.796036 0.896924
4187.62 0.696137 0.669984 0.796456 0.896966
4187.96 0.689822 0.668699 0.800029 0.897009
4188.3 0.679047 0.668701 0.803628 0.897052
4188.65 0.670574 0.669838 0.806728 0.897095
4188.99 0.667267 0.671868 0.80915 0.897139
4189.33 0.667307 0.674541 0.811584 0.897183
4189.68 0.668779 0.677646 0.810708 0.897228
4190.02 0.671076 0.681042 0.809031 0.897273
4190.36 0.674173 0.684649 0.807345 0.897318
4190.7 0.67798 0.688435 0.805603 0.897364
4191.05 0.682251 0.692383 0.803867 0.897411
4191.39 0.686714 0.696456 0.802536 0.897458
4191.73 0.691022 0.700559 0.801529 0.897505
4192.08 0.694769 0.70452 0.800523 0.897552
4192.42 0.697618 0.708086 0.798925 0.8976
4192.76 0.699597 0.710948 0.797287 0.897649
4193.1 0.700844 0.712788 0.795679 0.897697
4193.45 0.701594 0.713335 0.794132 0.897746
4193.79 0.702237 0.712394 0.79259 0.897796
4194.13 0.703119 0.709872 0.793644 0.897845
4194.48 0.703947 0.705777 0.795911 0.897895
4194.82 0.704029 0.700215 0.798473 0.897945
4195.16 0.702413 0.693379 0.805539 0.897996
4195.51 0.697287 0.685543 0.8127 0.898047
4195.85 0.686759 0.677052 0.819558 0.898098
4196.19 0.671972 0.668298 0.825985 0.898149
4196.54 0.657645 0.659686 0.832488 0.898201
4196.88 0.648081 0.651599 0.83678 0.898253
4197.22 0.64326 0.644371 0.840589 0.898305
4197.57 0.64131 0.638268 0.843911 0.898358
4197.91 0.640653 0.633466 0.845135 0.89841
4198.25 0.640396 0.630045 0.846362 0.898463
4198.6 0.639795 0.627972 0.847077 0.898516
4198.94 0.639055 0.627101 0.847414 0.89857
4199.28 0.639161 0.627187 0.847751 0.898623
4199.63 0.640901 0.627932 0.847721 0.898677
4199.97 0.644044 0.629049 0.847673 0.898731
4200.32 0.648072 0.630331 0.846754 0.898785
4200.66 0.652456 0.631704 0.844125 0.898839
4201.0 0.65666 0.633236 0.841508 0.898893
4201.35 0.66015 0.635105 0.839047 0.898948
4201.69 0.662447 0.637526 0.836653 0.899002
4202.03 0.663098 0.64067 0.834709 0.899057
4202.38 0.662103 0.644612 0.836738 0.899112
4202.72 0.660798 0.64931 0.838775 0.899167
4203.07 0.660729 0.654635 0.83953 0.899222
4203.41 0.662533 0.660424 0.838903 0.899277
4203.75 0.665893 0.666545 0.838278 0.899332
4204.1 0.670503 0.672925 0.837843 0.899388
4204.44 0.676401 0.679546 0.837438 0.899443
4204.79 0.683754 0.686401 0.83657 0.899498
4205.13 0.692457 0.693449 0.83431 0.899554
4205.47 0.701874 0.700579 0.83206 0.899609
4205.82 0.711249 0.707617 0.827479 0.899665
4206.16 0.718991 0.714355 0.821597 0.899721
4206.51 0.722925 0.720589 0.81589 0.899776
4206.85 0.722011 0.726154 0.816472 0.899832
4207.19 0.719575 0.730919 0.817054 0.899887
4207.54 0.719891 0.734777 0.816799 0.899943
4207.88 0.723922 0.73764 0.815303 0.899998
4208.23 0.728365 0.739448 0.813812 0.900054
4208.57 0.73007 0.740203 0.813856 0.900109
4208.92 0.729249 0.740002 0.81431 0.900165
4209.26 0.727664 0.739059 0.81444 0.90022
4209.6 0.726794 0.737686 0.813046 0.900275
4209.95 0.727405 0.73623 0.811656 0.90033
4210.29 0.730112 0.734997 0.808758 0.900386
4210.64 0.734685 0.734173 0.804708 0.900441
4210.98 0.740174 0.733766 0.800688 0.900496
4211.33 0.74562 0.733606 0.79621 0.90055
4211.67 0.750126 0.733384 0.791744 0.900605
4212.02 0.752818 0.732719 0.788432 0.90066
4212.36 0.753132 0.731239 0.787327 0.900714
4212.71 0.750975 0.728651 0.786223 0.900768
4213.05 0.746332 0.72479 0.789216 0.900822
4213.4 0.739532 0.719647 0.793786 0.900876
4213.74 0.7311 0.713382 0.798424 0.90093
4214.08 0.721612 0.706323 0.803322 0.900984
4214.43 0.711803 0.698965 0.808266 0.901037
4214.77 0.702426 0.69194 0.813294 0.90109
4215.12 0.694112 0.685954 0.818407 0.901143
4215.46 0.687366 0.681685 0.823569 0.901196
4215.81 0.68268 0.679672 0.826408 0.901249
4216.15 0.680503 0.680214 0.828985 0.901301
4216.5 0.681268 0.683327 0.829956 0.901353
4216.84 0.685034 0.688764 0.826908 0.901405
4217.19 0.691209 0.696093 0.823877 0.901457
4217.53 0.699098 0.704793 0.817522 0.901508
4217.88 0.70764 0.71433 0.809677 0.901559
4218.22 0.715542 0.724198 0.80204 0.90161
4218.57 0.721958 0.733925 0.795785 0.90166
4218.91 0.727507 0.743057 0.789603 0.90171
4219.26 0.733063 0.751158 0.784377 0.90176
4219.6 0.738369 0.757818 0.780224 0.90181
4219.95 0.74192 0.762681 0.776102 0.901859
4220.3 0.742408 0.765471 0.77495 0.901908
4220.64 0.740132 0.766008 0.774298 0.901956
4220.99 0.736009 0.764222 0.774252 0.902004
4221.33 0.730924 0.760136 0.776038 0.902052
4221.68 0.725691 0.753833 0.777831 0.9021
4222.02 0.721057 0.745421 0.780942 0.902147
4222.37 0.716949 0.73499 0.784806 0.902193
4222.71 0.712732 0.722599 0.78882 0.902239
4223.06 0.707553 0.708277 0.795953 0.902285
4223.4 0.699815 0.692074 0.803184 0.902331
4223.75 0.687775 0.674124 0.812894 0.902376
4224.1 0.670351 0.654701 0.825969 0.90242
4224.44 0.647244 0.634259 0.839363 0.902464
4224.79 0.619075 0.613441 0.859045 0.902508
4225.13 0.592333 0.593052 0.88071 0.902551
4225.48 0.575899 0.574019 0.901472 0.902594
4225.82 0.572892 0.557334 0.916848 0.902636
4226.17 0.574435 0.54399 0.932621 0.902678
4226.52 0.57083 0.534886 0.942352 0.902719
4226.86 0.561654 0.530718 0.948291 0.90276
4227.21 0.553218 0.531868 0.9541 0.9028
4227.55 0.550802 0.538327 0.950777 0.90284
4227.9 0.555221 0.549676 0.947471 0.90288
4228.24 0.566198 0.565132 0.940433 0.902919
4228.59 0.582154 0.583663 0.928348 0.902957
4228.94 0.599893 0.604126 0.916494 0.902996
4229.28 0.616628 0.625383 0.900144 0.903033
4229.63 0.633156 0.646382 0.883199 0.903071
4229.97 0.651798 0.666197 0.867074 0.903108
4230.32 0.673027 0.684037 0.852615 0.903144
4230.67 0.693355 0.699264 0.838513 0.90318
4231.01 0.708964 0.711422 0.829727 0.903216
4231.36 0.718572 0.720276 0.824155 0.903251
4231.71 0.722772 0.725845 0.818715 0.903286
4232.05 0.722392 0.728397 0.818085 0.903321
4232.4 0.718979 0.728409 0.817455 0.903355
4232.74 0.714247 0.726477 0.817341 0.903389
4233.09 0.709737 0.72321 0.817946 0.903423
4233.44 0.706768 0.719135 0.818552 0.903456
4233.78 0.706373 0.714637 0.819705 0.903488
4234.13 0.707658 0.709954 0.820982 0.903521
4234.48 0.708909 0.705232 0.822495 0.903553
4234.82 0.708624 0.700594 0.824841 0.903585
4235.17 0.70575 0.696205 0.827197 0.903616
4235.52 0.699482 0.692282 0.830037 0.903648
4235.86 0.691638 0.689066 0.833182 0.903679
4236.21 0.685937 0.686756 0.836241 0.903709
4236.56 0.685182 0.685455 0.835381 0.903739
4236.9 0.688606 0.685155 0.834522 0.903769
4237.25 0.694611 0.68577 0.831894 0.903799
4237.6 0.701283 0.687196 0.826943 0.903829
4237.94 0.706334 0.689357 0.822035 0.903858
4238.29 0.707956 0.692224 0.820633 0.903887
4238.64 0.707694 0.695804 0.819928 0.903915
4238.98 0.708452 0.700101 0.819178 0.903944
4239.33 0.712057 0.705079 0.818283 0.903972
4239.68 0.718157 0.710647 0.81739 0.904
4240.02 0.726082 0.716657 0.816307 0.904028
4240.37 0.734442 0.722929 0.815121 0.904055
4240.72 0.741351 0.729277 0.814009 0.904082
4241.06 0.745625 0.735546 0.814309 0.904109
4241.41 0.748538 0.741646 0.814609 0.904136
4241.76 0.751847 0.747572 0.815124 0.904163
4242.11 0.756017 0.753395 0.815896 0.904189
4242.45 0.76005 0.759217 0.81667 0.904215
4242.8 0.76297 0.765098 0.815729 0.904241
4243.15 0.764379 0.770985 0.814517 0.904267
4243.49 0.764101 0.776669 0.813491 0.904293
4243.84 0.762362 0.781798 0.812966 0.904319
4244.19 0.760123 0.785948 0.812442 0.904344
4244.54 0.758367 0.788722 0.812646 0.904369
4244.88 0.757448 0.789832 0.813196 0.904394
4245.23 0.757324 0.789143 0.813619 0.904419
4245.58 0.757912 0.786658 0.812684 0.904444
4245.92 0.759023 0.782469 0.811751 0.904469
4246.27 0.760432 0.776708 0.810738 0.904493
4246.62 0.761512 0.769515 0.809642 0.904518
4246.97 0.761235 0.76105 0.80855 0.904542
4247.31 0.758164 0.751507 0.813452 0.904566
4247.66 0.748813 0.741144 0.819038 0.90459
4248.01 0.72911 0.730279 0.826508 0.904614
4248.36 0.701701 0.719288 0.838125 0.904638
4248.7 0.68016 0.7086 0.849989 0.904662
4249.05 0.677276 0.698676 0.847355 0.904686
4249.4 0.688879 0.689983 0.83929 0.90471
4249.75 0.701473 0.682967 0.832756 0.904733
4250.1 0.705335 0.677976 0.83517 0.904757
4250.44 0.701055 0.675182 0.837596 0.90478
4250.79 0.690999 0.674504 0.841763 0.904804
4251.14 0.678807 0.675591 0.847398 0.904827
4251.49 0.669243 0.677873 0.853089 0.904851
4251.83 0.666035 0.680669 0.854531 0.904874
4252.18 0.668081 0.683339 0.855805 0.904898
4252.53 0.67293 0.685411 0.855615 0.904921
4252.88 0.678518 0.686672 0.852982 0.904944
4253.23 0.68332 0.687182 0.850362 0.904968
4253.57 0.686087 0.687237 0.851088 0.904991
4253.92 0.687387 0.687282 0.852716 0.905014
4254.27 0.688635 0.68781 0.853726 0.905038
4254.62 0.691217 0.689264 0.852276 0.905061
4254.97 0.696454 0.691961 0.850829 0.905085
4255.31 0.705442 0.696021 0.847032 0.905108
4255.66 0.716283 0.701328 0.841811 0.905132
4256.01 0.724866 0.707516 0.836784 0.905155
4256.36 0.72805 0.713995 0.836263 0.905179
4256.71 0.7264 0.720018 0.835742 0.905203
4257.06 0.72135 0.724797 0.835943 0.905226
4257.4 0.715116 0.72763 0.837035 0.90525
4257.75 0.710808 0.728036 0.838129 0.905274
4258.1 0.71093 0.725837 0.835585 0.905298
4258.45 0.713991 0.721187 0.832483 0.905322
4258.8 0.717018 0.714543 0.83017 0.905346
4259.15 0.717991 0.706598 0.829844 0.905371
4259.49 0.716601 0.698212 0.829519 0.905395
4259.84 0.712823 0.690333 0.827562 0.90542
4260.19 0.707738 0.683918 0.824908 0.905444
4260.54 0.703088 0.679824 0.822865 0.905469
4260.89 0.700267 0.6787 0.825407 0.905494
4261.24 0.699665 0.680899 0.827961 0.905519
4261.59 0.701494 0.686419 0.828398 0.905544
4261.93 0.705895 0.69493 0.826982 0.905569
4262.28 0.712947 0.705841 0.82557 0.905595
4262.63 0.722612 0.718412 0.819583 0.905621
4262.98 0.734318 0.731852 0.813438 0.905646
4263.33 0.74733 0.745402 0.806853 0.905672
4263.68 0.760614 0.758379 0.799501 0.905699
4264.03 0.772718 0.770206 0.792249 0.905725
4264.38 0.78232 0.780413 0.786753 0.905752
4264.73 0.78934 0.788651 0.781743 0.905778
4265.07 0.794262 0.794682 0.777919 0.905805
4265.42 0.797335 0.798381 0.778314 0.905832
4265.77 0.798297 0.799738 0.778709 0.90586
4266.12 0.796805 0.798845 0.782133 0.905887
4266.47 0.792384 0.795875 0.787347 0.905915
4266.82 0.784464 0.791046 0.792714 0.905943
4267.17 0.772979 0.784573 0.79985 0.905972
4267.52 0.759581 0.776622 0.807083 0.906
4267.87 0.746255 0.767278 0.814098 0.906029
4268.22 0.734208 0.756561 0.820854 0.906058
4268.57 0.723818 0.744463 0.827695 0.906088
4268.91 0.715171 0.731014 0.834854 0.906117
4269.26 0.706971 0.716341 0.842133 0.906147
4269.61 0.69748 0.700701 0.850929 0.906177
4269.96 0.686449 0.684496 0.862883 0.906208
4270.31 0.675997 0.668264 0.875092 0.906239
4270.66 0.668192 0.652629 0.878048 0.90627
4271.01 0.662818 0.638242 0.877831 0.906301
4271.36 0.658474 0.625708 0.878987 0.906333
4271.71 0.654015 0.615491 0.886795 0.906365
4272.06 0.648925 0.607841 0.894708 0.906397
4272.41 0.642853 0.602772 0.90153 0.90643
4272.76 0.636448 0.600108 0.907616 0.906463
4273.11 0.631143 0.599586 0.913664 0.906496
4273.46 0.628143 0.600989 0.9154 0.90653
4273.81 0.627745 0.604234 0.917142 0.906564
4274.16 0.630011 0.609387 0.916978 0.906598
4274.51 0.634531 0.616591 0.914475 0.906633
4274.86 0.640343 0.625933 0.911983 0.906668
4275.21 0.646765 0.637335 0.906542 0.906704
4275.56 0.654893 0.650504 0.900733 0.906739
4275.91 0.666446 0.664941 0.893455 0.906776
4276.26 0.681563 0.680025 0.882806 0.906812
4276.61 0.697718 0.695103 0.872345 0.906849
4276.96 0.712264 0.709554 0.86392 0.906886
4277.31 0.723835 0.72281 0.856291 0.906924
4277.66 0.731758 0.734343 0.849306 0.906962
4278.01 0.735973 0.74367 0.84527 0.907
4278.36 0.737933 0.750376 0.841262 0.907039
4278.71 0.739265 0.754199 0.838169 0.907078
4279.06 0.740581 0.755125 0.835715 0.907118
4279.41 0.741689 0.753453 0.833288 0.907158
4279.76 0.742226 0.749783 0.831923 0.907198
4280.11 0.741261 0.744907 0.83056 0.907239
4280.46 0.737784 0.739649 0.830234 0.907281
4280.81 0.732514 0.734706 0.831191 0.907322
4281.16 0.728164 0.730544 0.83215 0.907364
4281.51 0.726823 0.727387 0.834359 0.907407
4281.86 0.726314 0.72526 0.836754 0.90745
4282.21 0.72296 0.724056 0.839775 0.907493
4282.56 0.715914 0.723587 0.844213 0.907537
4282.91 0.709035 0.723599 0.848685 0.907581
4283.26 0.706191 0.723774 0.850208 0.907626
4283.61 0.707282 0.723755 0.85068 0.907671
4283.96 0.7101 0.723218 0.851734 0.907717
4284.31 0.712614 0.72195 0.855627 0.907763
4284.66 0.713273 0.719912 0.859548 0.90781
4285.01 0.710735 0.71723 0.865002 0.907857
4285.36 0.705657 0.714117 0.871509 0.907904
4285.71 0.700228 0.710765 0.877872 0.907952
4286.06 0.696359 0.707242 0.878453 0.908001
4286.41 0.694817 0.703447 0.879035 0.90805
4286.76 0.696047 0.699135 0.879861 0.908099
4287.12 0.698731 0.694005 0.880963 0.908149
4287.47 0.699638 0.687805 0.882068 0.908199
4287.82 0.695957 0.68044 0.889395 0.90825
4288.17 0.687626 0.672037 0.897487 0.908302
4288.52 0.675511 0.662973 0.905489 0.908354
4288.87 0.661107 0.653841 0.913199 0.908406
4289.22 0.646868 0.645359 0.921008 0.908459
4289.57 0.635232 0.638256 0.925141 0.908513
4289.92 0.627833 0.63316 0.928194 0.908567
4290.27 0.625911 0.630497 0.930038 0.908621
4290.62 0.629875 0.630449 0.927272 0.908676
4290.98 0.638331 0.632954 0.924518 0.908732
4291.33 0.649596 0.637733 0.919394 0.908788
4291.68 0.661368 0.644324 0.913021 0.908845
4292.03 0.670925 0.652123 0.906694 0.908902
4292.38 0.676305 0.660429 0.900219 0.90896
4292.73 0.677957 0.668529 0.893812 0.909018
4293.08 0.67686 0.675791 0.891335 0.909077
4293.43 0.67518 0.68176 0.892443 0.909137
4293.79 0.676216 0.686214 0.893552 0.909197
4294.14 0.68207 0.689133 0.891803 0.909258
4294.49 0.689222 0.690608 0.889934 0.909319
4294.84 0.692609 0.690713 0.889187 0.909381
4295.19 0.689516 0.689428 0.890143 0.909443
4295.54 0.680305 0.686627 0.8911 0.909506
4295.89 0.66596 0.682139 0.89792 0.90957
4296.25 0.650203 0.675837 0.905996 0.909634
4296.6 0.637836 0.667707 0.915825 0.909699
4296.95 0.630485 0.657861 0.930249 0.909764
4297.3 0.624004 0.646506 0.945018 0.90983
4297.65 0.614132 0.633904 0.956728 0.909897
4298.0 0.601479 0.620363 0.967276 0.909964
4298.35 0.589418 0.606265 0.977044 0.910032
4298.71 0.580124 0.592096 0.981706 0.9101
4299.06 0.572667 0.578453 0.986402 0.910169
4299.41 0.565663 0.565983 0.994234 0.910239
4299.76 0.558259 0.555281 1.00429 0.910309
4300.11 0.550006 0.546762 1.01449 0.91038
4300.47 0.540769 0.540594 1.02438 0.910452
4300.82 0.531473 0.536688 1.03443 0.910524
4301.17 0.523286 0.534774 1.04085 0.910597
4301.52 0.517417 0.534499 1.04322 0.910671
4301.87 0.51512 0.535531 1.0456 0.910745
4302.22 0.517366 0.537603 1.03758 0.91082
4302.58 0.52369 0.540491 1.02879 0.910896
4302.93 0.533159 0.543959 1.01951 0.910972
4303.28 0.544151 0.547704 1.00932 0.911049
4303.63 0.554071 0.55134 0.999285 0.911127
4303.99 0.560432 0.554438 0.996616 0.911205
4304.34 0.56207 0.556607 0.995655 0.911284
4304.69 0.558415 0.55757 0.995768 0.911364
4305.04 0.550381 0.557202 0.999037 0.911444
4305.39 0.541743 0.555516 1.00232 0.911525
4305.75 0.536309 0.55262 1.00425 0.911607
4306.1 0.534895 0.548665 1.00558 0.91169
4306.45 0.536544 0.543842 1.00669 0.911773
4306.8 0.539526 0.538401 1.00638 0.911857
4307.16 0.540144 0.532694 1.00608 0.911942
4307.51 0.534722 0.527187 1.00872 0.912027
4307.86 0.524822 0.522439 1.01342 0.912113
4308.21 0.516149 0.519019 1.01787 0.9122
4308.57 0.513397 0.517421 1.01487 0.912288
4308.92 0.517231 0.517986 1.01189 0.912376
4309.27 0.527342 0.520881 1.00433 0.912465
4309.62 0.541617 0.526097 0.992065 0.912555
4309.98 0.556062 0.533485 0.980021 0.912646
4310.33 0.56735 0.542794 0.967956 0.912737
4310.68 0.575888 0.553699 0.956094 0.912829
4311.03 0.583232 0.565839 0.945499 0.912922
4311.39 0.591012 0.578867 0.936772 0.913016
4311.74 0.600966 0.592492 0.928164 0.91311
4312.09 0.614499 0.606518 0.919698 0.913206
4312.44 0.630708 0.620848 0.911351 0.913302
4312.8 0.647739 0.635484 0.901046 0.913399
4313.15 0.664452 0.650505 0.885636 0.913496
4313.5 0.680996 0.66606 0.870617 0.913595
4313.86 0.697647 0.682341 0.855855 0.913694
4314.21 0.714614 0.699553 0.841419 0.913794
4314.56 0.732063 0.717845 0.827788 0.913895
4314.92 0.749993 0.737213 0.816502 0.913996
4315.27 0.767999 0.757429 0.805444 0.914099
4315.62 0.785596 0.778006 0.795489 0.914202
4315.97 0.802004 0.798251 0.786231 0.914306
4316.33 0.816229 0.817384 0.777391 0.914411
4316.68 0.827467 0.834676 0.771673 0.914516
4317.03 0.835531 0.849572 0.766017 0.914623
4317.39 0.840386 0.861733 0.762705 0.91473
4317.74 0.842645 0.871021 0.761427 0.914837
4318.09 0.843521 0.877448 0.760152 0.914946
4318.45 0.844171 0.881115 0.761148 0.915055
4318.8 0.845436 0.882174 0.762186 0.915164
4319.15 0.848036 0.880815 0.76201 0.915275
4319.51 0.851681 0.87727 0.760266 0.915385
4319.86 0.854883 0.871821 0.758527 0.915497
4320.21 0.856177 0.864777 0.757853 0.915608
4320.57 0.854618 0.856423 0.757312 0.91572
4320.92 0.849448 0.84694 0.758835 0.915833
4321.27 0.840318 0.836341 0.764348 0.915946
4321.63 0.827497 0.824457 0.769922 0.916059
4321.98 0.811368 0.811002 0.779552 0.916173
4322.34 0.792787 0.795709 0.790403 0.916287
4322.69 0.772822 0.77849 0.801882 0.916401
4323.04 0.752554 0.759558 0.814826 0.916515
4323.4 0.733078 0.739461 0.828087 0.91663
4323.75 0.715481 0.719031 0.842235 0.916745
4324.1 0.700706 0.699296 0.856986 0.91686
4324.46 0.689616 0.681374 0.869961 0.916975
4324.81 0.682502 0.666393 0.872057 0.917091
4325.17 0.678256 0.655408 0.87416 0.917206
4325.52 0.675667 0.649305 0.87436 0.917321
4325.87 0.67508 0.648678 0.873393 0.917437
4326.23 0.677973 0.653707 0.872089 0.917552
4326.58 0.685436 0.664088 0.866777 0.917668
4326.94 0.697251 0.679044 0.861512 0.917783
4327.29 0.712893 0.697438 0.854173 0.917898
4327.64 0.730931 0.717942 0.845114 0.918013
4328.0 0.749106 0.739212 0.836198 0.918128
4328.35 0.765437 0.760029 0.825716 0.918243
4328.71 0.779213 0.779391 0.815418 0.918358
4329.06 0.790101 0.796558 0.806226 0.918472
4329.41 0.799444 0.811071 0.798282 0.918586
4329.77 0.810484 0.822757 0.790455 0.9187
4330.12 0.825381 0.83171 0.78652 0.918813
4330.48 0.840094 0.83825 0.782981 0.918926
4330.83 0.848643 0.842855 0.782405 0.919039
4331.19 0.848865 0.846066 0.786848 0.919151
4331.54 0.843958 0.848417 0.79133 0.919263
4331.89 0.837483 0.850356 0.793028 0.919374
4332.25 0.832735 0.852204 0.794159 0.919485
4332.6 0.832876 0.854129 0.793404 0.919596
4332.96 0.839006 0.856135 0.788105 0.919705
4333.31 0.848661 0.858062 0.782859 0.919815
4333.67 0.859086 0.859606 0.779121 0.919923
4334.02 0.868119 0.86035 0.775885 0.920031
4334.38 0.873896 0.85981 0.772963 0.920139
4334.73 0.874778 0.857484 0.771125 0.920245
4335.09 0.869591 0.852902 0.769294 0.920351
4335.44 0.857469 0.845672 0.77717 0.920456
4335.8 0.840313 0.835538 0.789924 0.920561
4336.15 0.821759 0.822439 0.803089 0.920664
4336.5 0.804346 0.806552 0.817169 0.920767
4336.86 0.787641 0.7883 0.831624 0.920869
4337.21 0.77073 0.76832 0.845493 0.92097
4337.57 0.752779 0.747384 0.859059 0.92107
4337.92 0.733013 0.726304 0.872824 0.921169
4338.28 0.711426 0.705865 0.885071 0.921267
4338.63 0.690515 0.686797 0.897578 0.921364
4338.99 0.673205 0.669791 0.907217 0.92146
4339.34 0.660715 0.655508 0.914225 0.921555
4339.7 0.652695 0.644573 0.921315 0.921649
4340.05 0.648838 0.63751 0.919927 0.921741
4340.41 0.649252 0.634651 0.918518 0.921833
4340.76 0.654124 0.636042 0.915733 0.921923
4341.12 0.662923 0.641411 0.911371 0.922012
4341.47 0.674329 0.650195 0.907039 0.9221
4341.83 0.687001 0.661641 0.901489 0.922187
4342.19 0.699709 0.674945 0.895895 0.922272
4342.54 0.711282 0.689377 0.889844 0.922356
4342.9 0.721441 0.704354 0.883084 0.922439
4343.25 0.73109 0.719457 0.876401 0.92252
4343.61 0.741358 0.73438 0.868391 0.9226
4343.96 0.754243 0.748862 0.860268 0.922679
4344.32 0.772006 0.762631 0.852138 0.922756
4344.67 0.792796 0.775409 0.843881 0.922831
4345.03 0.808335 0.786963 0.835742 0.922905
4345.38 0.811362 0.797186 0.833237 0.922977
4345.74 0.806374 0.806156 0.832141 0.923048
4346.09 0.803135 0.814138 0.830184 0.923117
4346.45 0.807316 0.821504 0.825875 0.923185
4346.81 0.816945 0.828601 0.8216 0.923251
4347.16 0.829267 0.835606 0.814061 0.923315
4347.52 0.841929 0.842425 0.805463 0.923378
4347.87 0.8528 0.848673 0.79709 0.923438
4348.23 0.860807 0.853734 0.789187 0.923497
4348.58 0.867195 0.856886 0.781401 0.923554
4348.94 0.873079 0.857449 0.780146 0.923609
4349.3 0.874663 0.854934 0.78199 0.923663
4349.65 0.865068 0.849156 0.78599 0.923714
4350.01 0.841834 0.84029 0.802794 0.923764
4350.36 0.814112 0.828879 0.820145 0.923812
4350.72 0.792387 0.815773 0.832781 0.923857
4351.08 0.77979 0.802026 0.842394 0.923901
4351.43 0.774049 0.788749 0.8515 0.923942
4351.79 0.772843 0.776967 0.853833 0.923982
4352.14 0.774083 0.767503 0.856176 0.924019
4352.5 0.775788 0.760905 0.857076 0.924054
4352.86 0.7771 0.757434 0.856846 0.924087
4353.21 0.778118 0.757099 0.856654 0.924118
4353.57 0.779028 0.759716 0.857488 0.924147
4353.92 0.780225 0.764969 0.858324 0.924174
4354.28 0.782154 0.772453 0.858327 0.924198
4354.64 0.785337 0.781681 0.857524 0.92422
4354.99 0.790369 0.792084 0.856722 0.924239
4355.35 0.797571 0.803013 0.853648 0.924256
4355.71 0.806088 0.813763 0.85055 0.924271
4356.06 0.814753 0.823641 0.847941 0.924284
4356.42 0.822402 0.832047 0.845904 0.924293
4356.78 0.827868 0.838569 0.843875 0.924301
4357.13 0.830332 0.843047 0.842644 0.924306
4357.49 0.830676 0.845604 0.841473 0.924308
4357.85 0.830301 0.846615 0.84057 0.924308
4358.2 0.830473 0.846638 0.840052 0.924306
4358.56 0.832279 0.846305 0.839535 0.9243
4358.91 0.83632 0.84621 0.8394 0.924292
4359.27 0.840485 0.846811 0.839315 0.924282
4359.63 0.841753 0.848373 0.839049 0.924268
4359.98 0.839706 0.850972 0.838459 0.924252
4360.34 0.837687 0.85452 0.83787 0.924233
4360.7 0.83891 0.858831 0.835897 0.924212
4361.06 0.843774 0.863688 0.833662 0.924187
4361.41 0.851537 0.868891 0.830431 0.92416
4361.77 0.861146 0.874281 0.825042 0.92413
4362.13 0.871048 0.879752 0.819704 0.924097
4362.48 0.87981 0.885235 0.814465 0.924061
4362.84 0.887264 0.890657 0.809289 0.924023
4363.2 0.893827 0.895903 0.804571 0.923982
4363.55 0.900211 0.900777 0.800992 0.923939
4363.91 0.907665 0.905 0.797437 0.923893
4364.27 0.917095 0.908233 0.79263 0.923844
4364.62 0.925926 0.910141 0.787446 0.923793
4364.98 0.929807 0.910457 0.784445 0.92374
4365.34 0.926556 0.909046 0.788643 0.923685
4365.7 0.918491 0.905928 0.792875 0.923628
4366.05 0.908385 0.901274 0.797141 0.923568
4366.41 0.898017 0.895379 0.801442 0.923506
4366.77 0.888593 0.888626 0.805603 0.923443
4367.13 0.880853 0.881437 0.809049 0.923377
4367.48 0.874482 0.874231 0.812517 0.92331
4367.84 0.869009 0.867379 0.815878 0.92324
4368.2 0.863862 0.861176 0.819196 0.923169
4368.55 0.858409 0.855821 0.822704 0.923096
4368.91 0.852353 0.851419 0.827173 0.923022
4369.27 0.846273 0.847996 0.831679 0.922946
4369.63 0.840861 0.845512 0.836056 0.922869
4369.98 0.836542 0.843856 0.840373 0.92279
4370.34 0.833554 0.842827 0.844365 0.92271
4370.7 0.83189 0.842111 0.845697 0.922628
4371.06 0.830865 0.841277 0.847032 0.922545
4371.42 0.829696 0.839822 0.848424 0.922461
4371.77 0.827869 0.837246 0.849855 0.922376
4372.13 0.825075 0.833161 0.851462 0.92229
4372.49 0.821114 0.827384 0.854939 0.922202
4372.85 0.816098 0.819998 0.858437 0.922114
4373.2 0.810207 0.811363 0.862759 0.922025
4373.56 0.803743 0.802076 0.867724 0.921935
4373.92 0.797107 0.792899 0.872555 0.921844
4374.28 0.790689 0.784644 0.874293 0.921753
4374.64 0.784832 0.778076 0.876036 0.921661
4374.99 0.779911 0.773811 0.876717 0.921568
4375.35 0.777144 0.772239 0.876487 0.921475
4375.71 0.778506 0.773469 0.876203 0.921381
4376.07 0.784922 0.777321 0.873835 0.921287
4376.43 0.793321 0.783354 0.871476 0.921192
4376.78 0.799808 0.790935 0.869079 0.921098
4377.14 0.802727 0.799335 0.866645 0.921003
4377.5 0.802597 0.80782 0.864221 0.920908
4377.86 0.800375 0.815719 0.863856 0.920812
4378.22 0.79843 0.822455 0.863494 0.920717
4378.57 0.79936 0.827546 0.864674 0.920622
4378.93 0.802774 0.830586 0.867494 0.920527
4379.29 0.805173 0.831221 0.870329 0.920432
4379.65 0.803837 0.829145 0.870994 0.920337
4380.01 0.800039 0.824095 0.871602 0.920242
4380.37 0.79605 0.815872 0.875397 0.920148
4380.72 0.791836 0.804371 0.882969 0.920054
4381.08 0.78482 0.789629 0.890641 0.919961
4381.44 0.772876 0.771887 0.902747 0.919868
4381.8 0.756575 0.751668 0.91533 0.919776
4382.16 0.737281 0.729815 0.928713 0.919684
4382.52 0.716736 0.707484 0.943087 0.919594
4382.88 0.697131 0.686055 0.957799 0.919503
4383.23 0.680373 0.666981 0.969949 0.919414
4383.59 0.666864 0.651596 0.982113 0.919326
4383.95 0.656556 0.64094 0.990972 0.919238
4384.31 0.649826 0.635639 0.995058 0.919152
4384.67 0.647572 0.635847 0.99917 0.919066
4385.03 0.650466 0.641261 0.9921 0.918982
4385.39 0.657829 0.651183 0.984048 0.918899
4385.74 0.668535 0.664606 0.975265 0.918817
4386.1 0.681147 0.680336 0.965395 0.918736
4386.46 0.693832 0.697123 0.955673 0.918657
4386.82 0.705057 0.71379 0.947914 0.918579
4387.18 0.715082 0.729337 0.940459 0.918503
4387.54 0.724781 0.743013 0.933832 0.918428
4387.9 0.735141 0.75435 0.928433 0.918355
4388.26 0.747299 0.763165 0.923081 0.918284
4388.62 0.761826 0.769543 0.916756 0.918214
4388.98 0.776002 0.773813 0.91036 0.918146
4389.33 0.785982 0.776495 0.903952 0.91808
4389.69 0.790032 0.778224 0.897482 0.918016
4390.05 0.78935 0.779643 0.891081 0.917954
4390.41 0.785444 0.781288 0.893978 0.917894
4390.77 0.780378 0.78349 0.8983 0.917836
4391.13 0.776415 0.786335 0.900433 0.91778
4391.49 0.775494 0.789677 0.898697 0.917726
4391.85 0.779088 0.793214 0.896965 0.917675
4392.21 0.788219 0.796587 0.889553 0.917626
4392.57 0.801344 0.799489 0.881315 0.91758
4392.93 0.815929 0.801743 0.87337 0.917536
4393.29 0.828561 0.803355 0.865857 0.917494
4393.65 0.834545 0.804522 0.858439 0.917455
4394.01 0.830464 0.805605 0.863359 0.917419
4394.37 0.821619 0.80708 0.870517 0.917385
4394.72 0.816602 0.809449 0.874983 0.917355
4395.08 0.81873 0.813133 0.874249 0.917327
4395.44 0.823433 0.818362 0.873516 0.917302
4395.8 0.826283 0.825072 0.872826 0.91728
4396.16 0.827925 0.832876 0.872145 0.917261
4396.52 0.830992 0.841103 0.870056 0.917245
4396.88 0.837122 0.848926 0.865285 0.917232
4397.24 0.846448 0.855522 0.860552 0.917222
4397.6 0.858465 0.860237 0.854009 0.917216
4397.96 0.869359 0.862683 0.847192 0.917213
4398.32 0.874045 0.862775 0.843739 0.917214
4398.68 0.870677 0.860693 0.846722 0.917218
4399.04 0.862359 0.856827 0.849721 0.917225
4399.4 0.852402 0.8517 0.855136 0.917236
4399.76 0.842733 0.84589 0.861072 0.91725
4400.12 0.834712 0.839946 0.865993 0.917269
4400.48 0.828926 0.834291 0.86883 0.917291
4400.84 0.824782 0.829125 0.871682 0.917317
4401.2 0.821545 0.824368 0.874574 0.917347
4401.56 0.818222 0.819668 0.877485 0.91738
4401.92 0.813716 0.814488 0.881016 0.917418
4402.28 0.807333 0.808262 0.885758 0.91746
4402.64 0.798989 0.800578 0.890538 0.917506
4403.0 0.788758 0.791326 0.89717 0.917556
4403.36 0.777433 0.780768 0.904226 0.91761
4403.72 0.766086 0.769504 0.911605 0.917669
4404.08 0.755518 0.758357 0.919539 0.917732
4404.44 0.746117 0.748203 0.927577 0.917799
4404.8 0.73835 0.739809 0.932735 0.917871
4405.16 0.733432 0.733716 0.937383 0.917948
4405.53 0.732844 0.730191 0.939235 0.918029
4405.89 0.736577 0.72925 0.935786 0.918115
4406.25 0.742386 0.730738 0.932357 0.918205
4406.61 0.748052 0.734424 0.927428 0.918301
4406.97 0.752662 0.740076 0.922275 0.918401
4407.33 0.755848 0.747505 0.918261 0.918506
4407.69 0.759261 0.75657 0.916265 0.918616
4408.05 0.76751 0.767143 0.914275 0.918731
4408.41 0.784138 0.779068 0.90403 0.918851
4408.77 0.804676 0.792137 0.892628 0.918976
4409.13 0.821701 0.806067 0.882424 0.919106
4409.49 0.832085 0.820507 0.874093 0.91924
4409.85 0.838857 0.835059 0.865878 0.919379
4410.21 0.845128 0.849293 0.86358 0.919523
4410.57 0.851679 0.862759 0.86217 0.91967
4410.94 0.858431 0.874981 0.860923 0.919823
4411.3 0.865162 0.885458 0.859948 0.919979
4411.66 0.871458 0.893666 0.858974 0.92014
4412.02 0.877032 0.89909 0.855139 0.920305
4412.38 0.882398 0.901288 0.850946 0.920474
4412.74 0.888314 0.899973 0.846815 0.920647
4413.1 0.893805 0.895114 0.84276 0.920823
4413.46 0.895569 0.887021 0.838734 0.921004
4413.82 0.891019 0.876373 0.843079 0.921188
4414.18 0.882404 0.864183 0.84845 0.921376
4414.55 0.873569 0.851681 0.853941 0.921568
4414.91 0.866204 0.840132 0.859589 0.921763
4415.27 0.859221 0.830642 0.865293 0.921961
4415.63 0.851588 0.824013 0.87079 0.922163
4415.99 0.843516 0.820687 0.876314 0.922368
4416.35 0.835648 0.820781 0.880747 0.922576
4416.71 0.829458 0.824167 0.883628 0.922787
4417.07 0.827446 0.830556 0.886524 0.923002
4417.44 0.831618 0.839532 0.883031 0.923219
4417.8 0.841223 0.850529 0.879081 0.923439
4418.16 0.854628 0.862807 0.872847 0.923662
4418.52 0.869221 0.875454 0.86378 0.923888
4418.88 0.881247 0.887466 0.854853 0.924116
4419.24 0.887935 0.897876 0.850273 0.924347
4419.61 0.891401 0.905892 0.845949 0.92458
4419.97 0.895102 0.911023 0.842387 0.924816
4420.33 0.900384 0.913126 0.839695 0.925054
4420.69 0.906258 0.912391 0.837016 0.925294
4421.05 0.911416 0.909275 0.835935 0.925537
4421.41 0.913694 0.904417 0.834901 0.925781
4421.78 0.910837 0.898538 0.835243 0.926028
4422.14 0.904056 0.89233 0.837051 0.926276
4422.5 0.89818 0.886379 0.838865 0.926526
4422.86 0.89655 0.881086 0.842992 0.926778
4423.22 0.895826 0.876651 0.847158 0.927032
4423.58 0.891192 0.873102 0.850556 0.927287
4423.95 0.882569 0.870373 0.853204 0.927544
4424.31 0.874489 0.868392 0.855844 0.927802
4424.67 0.870612 0.867138 0.857651 0.928062
4425.03 0.870618 0.866649 0.859464 0.928323
4425.39 0.873228 0.866977 0.860867 0.928585
4425.76 0.876484 0.868129 0.861913 0.928848
4426.12 0.877815 0.870019 0.862934 0.929112
4426.48 0.87563 0.872466 0.863469 0.929378
4426.84 0.871766 0.87523 0.864003 0.929644
4427.21 0.868728 0.878058 0.865082 0.929911
4427.57 0.867781 0.880712 0.866579 0.930178
4427.93 0.869156 0.882979 0.867802 0.930447
4428.29 0.872644 0.884681 0.865943 0.930716
4428.65 0.876768 0.8857 0.864089 0.930985
4429.02 0.879874 0.886024 0.862015 0.931255
4429.38 0.881417 0.885774 0.859799 0.931525
4429.74 0.881715 0.8852 0.857634 0.931796
4430.1 0.881206 0.884596 0.855814 0.932067
4430.47 0.880626 0.884179 0.853999 0.932337
4430.83 0.880699 0.883968 0.852856 0.932608
4431.19 0.88137 0.883744 0.852103 0.932879
4431.55 0.882025 0.883094 0.851706 0.933149
4431.92 0.881863 0.881547 0.853329 0.93342
4432.28 0.879628 0.87873 0.854957 0.93369
4432.64 0.874154 0.874483 0.858552 0.93396
4433.0 0.866138 0.868897 0.863156 0.934229
4433.37 0.857482 0.862292 0.867586 0.934498
4433.73 0.849734 0.855162 0.871112 0.934766
4434.09 0.843584 0.84812 0.874659 0.935034
4434.46 0.839554 0.841856 0.877221 0.9353
4434.82 0.837729 0.837103 0.879371 0.935566
4435.18 0.837939 0.834567 0.881073 0.935831
4435.54 0.840033 0.834835 0.881203 0.936095
4435.91 0.843907 0.838269 0.881333 0.936358
4436.27 0.849509 0.844921 0.8788 0.93662
4436.63 0.857198 0.85451 0.87537 0.93688
4437.0 0.867537 0.86646 0.870389 0.93714
4437.36 0.879974 0.879989 0.861155 0.937397
4437.72 0.89187 0.894185 0.852066 0.937654
4438.09 0.900803 0.908089 0.845066 0.937908
4438.45 0.907817 0.920738 0.838676 0.938162
4438.81 0.91555 0.931225 0.833041 0.938413
4439.17 0.925142 0.938769 0.82899 0.938663
4439.54 0.935227 0.94281 0.824968 0.938911
4439.9 0.94398 0.943105 0.823537 0.939156
4440.26 0.948061 0.939795 0.822635 0.9394
4440.63 0.943576 0.933401 0.823547 0.939642
4440.99 0.930488 0.92476 0.827814 0.939882
4441.35 0.91445 0.914911 0.832116 0.940119
4441.72 0.901001 0.904957 0.837974 0.940354
4442.08 0.892312 0.895939 0.844114 0.940586
4442.44 0.889307 0.888739 0.847688 0.940816
4442.81 0.891671 0.884012 0.847311 0.941044
4443.17 0.89747 0.882155 0.846933 0.941269
4443.54 0.904636 0.883294 0.846001 0.941491
4443.9 0.910967 0.887293 0.845025 0.94171
4444.26 0.914271 0.893775 0.844932 0.941926
4444.63 0.91382 0.902158 0.845932 0.94214
4444.99 0.91057 0.911717 0.846933 0.94235
4445.35 0.906273 0.921671 0.849255 0.942557
4445.72 0.905722 0.931289 0.851624 0.942762
4446.08 0.914259 0.939983 0.847116 0.942962
4446.44 0.93066 0.947376 0.835836 0.94316
4446.81 0.947094 0.953314 0.825009 0.943354
4447.17 0.957272 0.95781 0.82368 0.943544
4447.54 0.961734 0.960962 0.822353 0.943731
4447.9 0.962585 0.962871 0.822165 0.943914
4448.26 0.961457 0.963608 0.822904 0.944093
4448.63 0.959569 0.963241 0.823723 0.944269
4448.99 0.957679 0.961893 0.825489 0.944441
4449.36 0.955136 0.959783 0.82726 0.944608
4449.72 0.951065 0.957204 0.830781 0.944772
4450.08 0.945474 0.954426 0.835474 0.944931
4450.45 0.939036 0.951587 0.840174 0.945087
4450.81 0.932475 0.9486 0.844688 0.945237
4451.18 0.92661 0.945161 0.849238 0.945384
4451.54 0.922156 0.940839 0.851798 0.945526
4451.91 0.918403 0.935219 0.853331 0.945663
4452.27 0.913714 0.928039 0.855421 0.945796
4452.63 0.906909 0.919257 0.859873 0.945925
4453.0 0.897884 0.909056 0.864361 0.946048
4453.36 0.886775 0.897788 0.87144 0.946166
4453.73 0.874552 0.885915 0.879614 0.94628
4454.09 0.862649 0.873959 0.888226 0.946389
4454.46 0.852266 0.862469 0.897946 0.946492
4454.82 0.84414 0.851978 0.907826 0.94659
4455.18 0.838666 0.842954 0.913428 0.946684
4455.55 0.833965 0.835734 0.917829 0.946772
4455.91 0.827122 0.830471 0.921885 0.946856
4456.28 0.817965 0.827109 0.925134 0.946934
4456.64 0.810839 0.825407 0.928399 0.947008
4457.01 0.809821 0.824995 0.927373 0.947077
4457.37 0.814573 0.825438 0.925552 0.947142
4457.74 0.822986 0.826306 0.922722 0.947202
4458.1 0.83243 0.827218 0.918227 0.947257
4458.47 0.839548 0.827886 0.913765 0.947308
4458.83 0.841884 0.828138 0.910916 0.947355
4459.2 0.842027 0.827921 0.90824 0.947397
4459.56 0.844119 0.827302 0.907913 0.947435
4459.93 0.849064 0.826464 0.910562 0.947469
4460.29 0.853987 0.825704 0.913222 0.947499
4460.66 0.856269 0.825422 0.912602 0.947524
4461.02 0.855329 0.826097 0.911898 0.947546
4461.39 0.851204 0.828216 0.91329 0.947564
4461.75 0.84543 0.832156 0.916722 0.947578
4462.12 0.841011 0.838067 0.920073 0.947588
4462.48 0.840564 0.845788 0.921217 0.947594
4462.85 0.845129 0.85486 0.922363 0.947597
4463.21 0.855206 0.864632 0.918156 0.947596
4463.58 0.868096 0.874425 0.910127 0.947591
4463.94 0.87849 0.883685 0.902877 0.947583
4464.31 0.883193 0.892054 0.900934 0.947572
4464.67 0.885263 0.899364 0.898997 0.947557
4465.04 0.888631 0.905562 0.895439 0.947539
4465.4 0.894335 0.910631 0.89103 0.947518
4465.77 0.901458 0.914552 0.886481 0.947494
4466.13 0.908801 0.917307 0.881217 0.947466
4466.5 0.914607 0.918911 0.875999 0.947436
4466.86 0.917177 0.919435 0.873607 0.947402
4467.23 0.916118 0.919012 0.872285 0.947366
4467.6 0.911775 0.917836 0.872711 0.947327
4467.96 0.905524 0.916151 0.878111 0.947285
4468.33 0.900675 0.914256 0.883562 0.94724
4468.69 0.900315 0.912514 0.88394 0.947193
4469.06 0.904264 0.911319 0.883035 0.947143
4469.42 0.91088 0.911055 0.882105 0.947091
4469.79 0.918964 0.912029 0.881125 0.947036
4470.15 0.928004 0.914424 0.880146 0.946979
4470.52 0.937538 0.918284 0.875824 0.946919
4470.89 0.947059 0.92353 0.871066 0.946858
4471.25 0.956047 0.929984 0.865243 0.946794
4471.62 0.964116 0.937397 0.857946 0.946728
4471.98 0.971047 0.945463 0.85074 0.94666
4472.35 0.976702 0.953834 0.843707 0.94659
4472.72 0.981273 0.962138 0.836763 0.946518
4473.08 0.985036 0.970008 0.832041 0.946444
4473.45 0.988163 0.977131 0.829516 0.946368
4473.81 0.990713 0.983309 0.82708 0.946291
4474.18 0.992755 0.988497 0.826668 0.946212
4474.55 0.994404 0.99282 0.826257 0.946131
4474.91 0.995812 0.996533 0.82563 0.946049
4475.28 0.997572 0.999945 0.824848 0.945966
4475.64 1.00063 1.00331 0.823878 0.945881
4476.01 1.00557 1.00672 0.821544 0.945794
4476.38 1.01189 1.01006 0.81922 0.945707
4476.74 1.01878 1.01298 0.81623 0.945618
4477.11 1.02368 1.015 0.812916 0.945528
4477.48 1.02296 1.01554 0.811364 0.945437
4477.84 1.01564 1.0141 0.816564 0.945345
4478.21 1.00674 1.01033 0.821814 0.945252
4478.57 1.00132 1.00408 0.825231 0.945158
4478.94 0.998241 0.995479 0.828037 0.945063
4479.31 0.993177 0.984898 0.831979 0.944968
4479.67 0.983753 0.97294 0.838676 0.944872
4480.04 0.97101 0.960367 0.845455 0.944775
4480.41 0.956528 0.948027 0.851575 0.944678
4480.77 0.943201 0.936786 0.857616 0.94458
4481.14 0.934399 0.927456 0.860993 0.944482
4481.51 0.931215 0.920734 0.859995 0.944383
4481.87 0.931643 0.917147 0.858998 0.944284
4482.24 0.933713 0.916987 0.863299 0.944185
4482.61 0.936738 0.920266 0.868047 0.944086
4482.97 0.940454 0.926696 0.867811 0.943986
4483.34 0.945266 0.935724 0.86206 0.943887
4483.71 0.952299 0.946617 0.856347 0.943787
4484.07 0.962258 0.958565 0.849871 0.943688
4484.44 0.974154 0.970761 0.843467 0.943589
4484.81 0.986582 0.982449 0.838008 0.94349
4485.18 0.997844 0.992937 0.833259 0.943391
4485.54 1.006 1.0016 0.828762 0.943293
4485.91 1.0098 1.00787 0.825916 0.943195
4486.28 1.01003 1.01134 0.823084 0.943097
4486.64 1.00782 1.01177 0.823947 0.943
4487.01 1.00419 1.00915 0.826697 0.942904
4487.38 1.00007 1.00376 0.829804 0.942808
4487.74 0.995543 0.996138 0.834221 0.942713
4488.11 0.988798 0.987005 0.838674 0.942619
4488.48 0.978099 0.977218 0.84551 0.942526
4488.85 0.964432 0.967656 0.853181 0.942434
4489.21 0.950147 0.959125 0.860768 0.942342
4489.58 0.937802 0.952264 0.868026 0.942252
4489.95 0.930276 0.947473 0.875377 0.942163
4490.32 0.929704 0.944866 0.877129 0.942075
4490.68 0.933461 0.944277 0.877957 0.941988
4491.05 0.937184 0.945296 0.878648 0.941903
4491.42 0.939005 0.947336 0.87914 0.941819
4491.79 0.940213 0.949715 0.879632 0.941736
4492.15 0.942025 0.951746 0.87961 0.941655
4492.52 0.944417 0.952826 0.879566 0.941576
4492.89 0.946998 0.952529 0.879828 0.941498
4493.26 0.949007 0.950675 0.880382 0.941422
4493.62 0.949323 0.947377 0.88104 0.941348
4493.99 0.947014 0.943025 0.883233 0.941275
4494.36 0.941814 0.938205 0.885434 0.941204
4494.73 0.933715 0.933601 0.889181 0.941136
4495.09 0.924371 0.929883 0.89392 0.941069
4495.46 0.916663 0.92763 0.897893 0.941005
4495.83 0.912855 0.927283 0.897924 0.940942
4496.2 0.913635 0.929114 0.897955 0.940882
4496.57 0.919308 0.933196 0.895009 0.940824
4496.93 0.928779 0.93937 0.890941 0.940769
4497.3 0.940175 0.947235 0.886438 0.940716
4497.67 0.951995 0.956185 0.880766 0.940665
4498.04 0.96342 0.965504 0.875148 0.940617
4498.41 0.973813 0.974486 0.86964 0.940572
4498.77 0.983265 0.982545 0.864194 0.940529
4499.14 0.992139 0.989289 0.859337 0.940489
4499.51 0.999442 0.994549 0.855372 0.940452
4499.88 1.00235 0.998385 0.851434 0.940418
4500.25 0.999206 1.00107 0.853241 0.940387
4500.61 0.994594 1.00309 0.855421 0.940358
4500.98 0.994755 1.00503 0.855144 0.940333
4501.35 1.00106 1.00753 0.852373 0.940311
4501.72 1.00997 1.0111 0.849491 0.940292
4502.09 1.01834 1.01602 0.84436 0.940276
4502.46 1.02517 1.02227 0.839275 0.940264
4502.82 1.03009 1.02953 0.83406 0.940254
4503.19 1.03536 1.03732 0.828782 0.940248
4503.56 1.04514 1.04508 0.823756 0.940245
4503.93 1.06024 1.05231 0.81978 0.940244
4504.3 1.07297 1.05859 0.815833 0.940247
4504.67 1.07545 1.0636 0.814607 0.940253
4505.04 1.07015 1.06712 0.814412 0.940262
4505.4 1.06522 1.06904 0.814004 0.940273
4505.77 1.06493 1.06936 0.813053 0.940288
4506.14 1.06658 1.06824 0.812103 0.940305
4506.51 1.06697 1.06598 0.812439 0.940325
4506.88 1.06455 1.063 0.81302 0.940348
4507.25 1.0585 1.05979 0.814267 0.940374
4507.62 1.0511 1.05679 0.81652 0.940402
4507.99 1.04869 1.05435 0.818783 0.940433
4508.35 1.05546 1.05267 0.816783 0.940467
4508.72 1.06475 1.05181 0.814611 0.940503
4509.09 1.06725 1.05164 0.814623 0.940542
4509.46 1.06178 1.05189 0.816655 0.940584
4509.83 1.05494 1.05218 0.818754 0.940628
4510.2 1.05182 1.05209 0.821542 0.940675
4510.57 1.05183 1.05119 0.824344 0.940724
4510.94 1.0532 1.04918 0.827462 0.940775
4511.31 1.05356 1.04593 0.830767 0.940829
4511.67 1.05011 1.04149 0.834175 0.940886
4512.04 1.04179 1.03612 0.83793 0.940944
4512.41 1.03147 1.03015 0.841711 0.941005
4512.78 1.02225 1.02398 0.845158 0.941069
4513.15 1.01478 1.01797 0.848516 0.941134
4513.52 1.00853 1.01244 0.851944 0.941202
4513.89 1.00311 1.00759 0.855496 0.941272
4514.26 0.998431 1.00359 0.859069 0.941344
4514.63 0.994404 1.00049 0.862156 0.941419
4515.0 0.990941 0.99824 0.865196 0.941495
4515.37 0.987953 0.996692 0.867665 0.941573
4515.74 0.985481 0.995633 0.869437 0.941654
4516.11 0.983714 0.99484 0.871181 0.941736
4516.48 0.982866 0.994168 0.8711 0.941821
4516.85 0.983229 0.993625 0.87102 0.941907
4517.22 0.985096 0.993379 0.870234 0.941996
4517.58 0.988483 0.993701 0.868944 0.942086
4517.95 0.99318 0.994849 0.867397 0.942178
4518.32 0.998812 0.99695 0.86436 0.942272
4518.69 1.00458 0.999939 0.861338 0.942367
4519.06 1.0097 1.00358 0.857416 0.942465
4519.43 1.01396 1.00754 0.853155 0.942564
4519.8 1.01751 1.01146 0.849143 0.942665
4520.17 1.02057 1.01499 0.845716 0.942767
4520.54 1.02341 1.0178 0.84231 0.942872
4520.91 1.02612 1.01957 0.842177 0.942977
4521.28 1.02748 1.02002 0.842641 0.943085
4521.65 1.0258 1.01895 0.845099 0.943194
4522.02 1.02078 1.01633 0.850435 0.943304
4522.39 1.01391 1.01227 0.855821 0.943416
4522.76 1.0066 1.00702 0.861305 0.943529
4523.13 0.99931 1.00078 0.866844 0.943644
4523.5 0.992277 0.993692 0.872011 0.94376
4523.87 0.985293 0.985757 0.876871 0.943877
4524.24 0.977787 0.976936 0.881719 0.943996
4524.61 0.969205 0.967229 0.886198 0.944116
4524.98 0.959083 0.956744 0.890711 0.944238
4525.35 0.947084 0.94571 0.896216 0.94436
4525.72 0.934049 0.934426 0.902217 0.944484
4526.09 0.921538 0.923189 0.909443 0.944609
4526.46 0.910294 0.912255 0.920228 0.944735
4526.83 0.89946 0.901827 0.931207 0.944862
4527.21 0.888211 0.892095 0.940184 0.94499
4527.58 0.877165 0.883287 0.948817 0.945119
4527.95 0.867535 0.875695 0.956198 0.94525
4528.32 0.860223 0.869657 0.961542 0.945381
4528.69 0.855712 0.865484 0.966931 0.945513
4529.06 0.854172 0.863379 0.968771 0.945646
4529.43 0.854491 0.863376 0.970487 0.94578
4529.8 0.855294 0.865322 0.97006 0.945915
4530.17 0.856978 0.868916 0.967784 0.946051
4530.54 0.861548 0.873754 0.965087 0.946187
4530.91 0.870094 0.879366 0.958883 0.946324
4531.28 0.880873 0.885212 0.952738 0.946462
4531.65 0.891684 0.8907 0.946566 0.946601
4532.02 0.900945 0.895244 0.940414 0.94674
4532.39 0.907461 0.898376 0.935343 0.94688
4532.76 0.910605 0.899885 0.933315 0.947021
4533.14 0.910825 0.899897 0.931294 0.947162
4533.51 0.908796 0.898875 0.934509 0.947304
4533.88 0.905887 0.897526 0.938851 0.947446
4534.25 0.903744 0.896668 0.940522 0.947588
4534.62 0.903483 0.897104 0.938153 0.947731
4534.99 0.905534 0.899534 0.935793 0.947875
4535.36 0.910163 0.904474 0.932657 0.948019
4535.73 0.917122 0.912164 0.929516 0.948163
4536.1 0.926026 0.922475 0.924834 0.948308
4536.47 0.936485 0.934867 0.918921 0.948452
4536.85 0.948113 0.948448 0.912847 0.948598
4537.22 0.96048 0.962126 0.905313 0.948743
4537.59 0.973049 0.974834 0.897871 0.948889
4537.96 0.985216 0.985721 0.891231 0.949034
4538.33 0.995858 0.994267 0.884967 0.94918
4538.7 1.00356 1.00029 0.880255 0.949326
4539.07 1.00766 1.00389 0.879476 0.949472
4539.45 1.00894 1.00535 0.878697 0.949618
4539.82 1.00829 1.00513 0.879043 0.949764
4540.19 1.00657 1.00374 0.879584 0.94991
4540.56 1.00461 1.00175 0.880388 0.950056
4540.93 1.00293 0.999691 0.881544 0.950202
4541.3 1.00168 0.997978 0.882701 0.950348
4541.67 1.0009 0.996814 0.883778 0.950494
4542.05 1.00018 0.996172 0.884858 0.950639
4542.42 0.99907 0.995839 0.885353 0.950784
4542.79 0.997391 0.995504 0.885431 0.950929
4543.16 0.995237 0.994876 0.885636 0.951074
4543.53 0.992703 0.99378 0.886491 0.951219
4543.9 0.989875 0.992207 0.887348 0.951363
4544.28 0.986858 0.990284 0.889402 0.951506
4544.65 0.983917 0.988204 0.891881 0.95165
4545.02 0.981401 0.986135 0.894068 0.951793
4545.39 0.979589 0.984158 0.895624 0.951935
4545.76 0.978649 0.982256 0.897185 0.952077
4546.14 0.978669 0.980353 0.896422 0.952219
4546.51 0.979343 0.978369 0.895407 0.95236
4546.88 0.980229 0.976261 0.895134 0.9525
4547.25 0.980621 0.974029 0.895657 0.95264
4547.62 0.979543 0.97171 0.896305 0.952779
4548.0 0.97615 0.96938 0.898804 0.952917
4548.37 0.97007 0.967169 0.901313 0.953055
4548.74 0.961199 0.965279 0.904158 0.953192
4549.11 0.951535 0.963967 0.907196 0.953328
4549.48 0.944519 0.963471 0.909565 0.953463
4549.86 0.942981 0.963903 0.909599 0.953598
4550.23 0.948429 0.965171 0.909632 0.953732
4550.6 0.961327 0.96697 0.904038 0.953865
4550.97 0.975826 0.968874 0.897181 0.953997
4551.35 0.983442 0.970469 0.895039 0.954128
4551.72 0.981214 0.971482 0.900165 0.954259
4552.09 0.973533 0.971821 0.905334 0.954389
4552.46 0.964836 0.971548 0.908341 0.954518
4552.84 0.957538 0.970799 0.911306 0.954647
4553.21 0.953432 0.969754 0.911203 0.954774
4553.58 0.95286 0.96863 0.908675 0.954901
4553.95 0.954921 0.967725 0.905562 0.955028
4554.33 0.958467 0.967446 0.898914 0.955153
4554.7 0.961805 0.968277 0.892338 0.955278
4555.07 0.963644 0.970687 0.888398 0.955402
4555.44 0.967287 0.97501 0.885441 0.955526
4555.82 0.978478 0.981335 0.880783 0.955648
4556.19 0.997577 0.989474 0.872433 0.95577
4556.56 1.01607 0.998989 0.8642 0.955892
4556.93 1.02628 1.00929 0.859111 0.956012
4557.31 1.0296 1.01977 0.854408 0.956132
4557.68 1.03049 1.02989 0.850957 0.956252
4558.05 1.03296 1.03924 0.848815 0.956371
4558.43 1.04056 1.04755 0.846749 0.956489
4558.8 1.05432 1.05465 0.84557 0.956606
4559.17 1.0671 1.06045 0.844393 0.956723
4559.55 1.07087 1.06491 0.843397 0.956839
4559.92 1.06683 1.06806 0.842494 0.956955
4560.29 1.0622 1.06993 0.842214 0.95707
4560.66 1.06119 1.07055 0.843847 0.957184
4561.04 1.06181 1.06991 0.845485 0.957298
4561.41 1.06156 1.06795 0.848549 0.957411
4561.78 1.05918 1.06456 0.851915 0.957524
4562.16 1.05394 1.05974 0.855709 0.957636
4562.53 1.04613 1.05359 0.860091 0.957747
4562.9 1.0373 1.04642 0.864506 0.957858
4563.28 1.02887 1.0387 0.868966 0.957969
4563.65 1.0217 1.03102 0.873462 0.958078
4564.02 1.01639 1.02395 0.878066 0.958188
4564.4 1.01272 1.01806 0.882757 0.958296
4564.77 1.00983 1.01384 0.887009 0.958405
4565.14 1.00719 1.01167 0.889257 0.958512
4565.52 1.00517 1.01185 0.891515 0.95862
4565.89 1.00427 1.01449 0.890178 0.958726
4566.27 1.00539 1.01943 0.88784 0.958832
4566.64 1.00958 1.02621 0.883674 0.958938
4567.01 1.01756 1.03409 0.876471 0.959043
4567.39 1.0295 1.04216 0.869355 0.959148
4567.76 1.04497 1.04952 0.860057 0.959252
4568.13 1.06088 1.05543 0.850822 0.959356
4568.51 1.0735 1.0594 0.844811 0.959459
4568.88 1.08096 1.06123 0.841314 0.959562
4569.26 1.08305 1.06094 0.838468 0.959665
4569.63 1.08014 1.0587 0.839265 0.959767
4570.0 1.07392 1.05489 0.840062 0.959868
4570.38 1.0663 1.05002 0.842455 0.959969
4570.75 1.05896 1.04482 0.84542 0.96007
4571.12 1.05344 1.04011 0.848273 0.96017
4571.5 1.0503 1.03667 0.850885 0.96027
4571.87 1.04851 1.03507 0.853509 0.96037
4572.25 1.04714 1.03549 0.853679 0.960469
4572.62 1.04626 1.03767 0.853656 0.960568
4573.0 1.04623 1.04107 0.853993 0.960666
4573.37 1.04686 1.04505 0.854659 0.960764
4573.74 1.04749 1.04907 0.855435 0.960862
4574.12 1.04767 1.05281 0.857035 0.960959
4574.49 1.04773 1.05613 0.85864 0.961056
4574.87 1.04812 1.05899 0.859834 0.961153
4575.24 1.04954 1.06129 0.860862 0.961249
4575.61 1.05276 1.06285 0.860465 0.961345
4575.99 1.0571 1.06339 0.856864 0.96144
4576.36 1.05947 1.06264 0.853286 0.961536
4576.74 1.05739 1.06042 0.85416 0.961631
4577.11 1.05293 1.05668 0.855511 0.961725
4577.49 1.04959 1.0515 0.856987 0.96182
4577.86 1.04832 1.04506 0.858589 0.961914
4578.24 1.04751 1.0376 0.860114 0.962008
4578.61 1.04567 1.02942 0.860883 0.962101
4578.99 1.04205 1.02087 0.861653 0.962194
4579.36 1.03632 1.01235 0.861395 0.962287
4579.73 1.0313 1.00435 0.860686 0.96238
4580.11 1.03167 0.99733 0.859545 0.962473
4580.48 1.0373 0.991734 0.857363 0.962565
4580.86 1.03975 0.98785 0.855189 0.962657
4581.23 1.03148 0.985764 0.867178 0.962749
4581.61 1.01459 0.985331 0.881217 0.96284
4581.98 0.994477 0.986205 0.892559 0.962932
4582.36 0.97634 0.98792 0.90091 0.963023
4582.73 0.965131 0.990006 0.90849 0.963114
4583.11 0.964395 0.992077 0.907037 0.963204
4583.48 0.973392 0.993881 0.905588 0.963295
4583.86 0.989959 0.995303 0.901721 0.963385
4584.23 1.0055 0.996349 0.896795 0.963476
4584.61 1.00761 0.997126 0.894638 0.963566
4584.98 0.993474 0.997853 0.899211 0.963656
4585.36 0.977109 0.998864 0.90382 0.963745
4585.73 0.971951 1.00058 0.902997 0.963835
4586.11 0.978816 1.00342 0.901507 0.963924
4586.48 0.9941 1.00767 0.897553 0.964014
4586.86 1.01304 1.01338 0.891101 0.964103
4587.24 1.02971 1.02031 0.884526 0.964192
4587.61 1.04013 1.02796 0.87619 0.964281
4587.99 1.04646 1.03572 0.867969 0.96437
4588.36 1.05178 1.04296 0.864775 0.964459
4588.74 1.0571 1.04911 0.863748 0.964547
4589.11 1.06214 1.05374 0.862878 0.964636
4589.49 1.06595 1.05655 0.862376 0.964725
4589.86 1.06648 1.05738 0.861874 0.964813
4590.24 1.06207 1.05624 0.863834 0.964901
4590.61 1.05378 1.0533 0.866071 0.96499
4590.99 1.04363 1.04889 0.868678 0.965078
4591.37 1.03412 1.04347 0.871653 0.965166
4591.74 1.02827 1.03754 0.874234 0.965254
4592.12 1.02759 1.03158 0.873487 0.965343
4592.49 1.02903 1.02595 0.872742 0.965431
4592.87 1.029 1.02085 0.875757 0.965519
4593.24 1.02606 1.01636 0.880309 0.965607
4593.62 1.02005 1.01249 0.885508 0.965695
4594.0 1.01173 1.0092 0.892071 0.965783
4594.37 1.00343 1.00654 0.898708 0.965871
4594.75 0.997369 1.00457 0.901854 0.96596
4595.12 0.994805 1.00337 0.904726 0.966048
4595.5 0.996581 1.00298 0.904321 0.966136
4595.88 1.00184 1.00335 0.901022 0.966224
4596.25 1.00817 1.00433 0.89799 0.966313
4596.63 1.01364 1.00574 0.896532 0.966401
4597.0 1.01787 1.0074 0.895078 0.966489
4597.38 1.02077 1.00919 0.894821 0.966578
4597.76 1.02261 1.01104 0.894976 0.966666
4598.13 1.02385 1.01287 0.895395 0.966755
4598.51 1.02457 1.01451 0.896305 0.966844
4598.88 1.02435 1.0158 0.897216 0.966932
4599.26 1.02275 1.01657 0.898523 0.967021
4599.64 1.01948 1.01678 0.89985 0.96711
4600.01 1.01433 1.0166 0.901249 0.967199
4600.39 1.00857 1.0163 0.902704 0.967288
4600.77 1.00466 1.01619 0.903639 0.967377
4601.14 1.00427 1.01646 0.90213 0.967466
4601.52 1.00704 1.01711 0.900625 0.967555
4601.9 1.01223 1.01804 0.897567 0.967644
4602.27 1.01862 1.01904 0.894102 0.967733
4602.65 1.02476 1.02001 0.890737 0.967822
4603.03 1.02958 1.0209 0.887512 0.967911
4603.4 1.03248 1.02175 0.884314 0.968
4603.78 1.03324 1.02265 0.88287 0.96809
4604.16 1.03273 1.02371 0.88143 0.968179
4604.53 1.03209 1.02508 0.881384 0.968268
4604.91 1.03162 1.02696 0.882205 0.968357
4605.29 1.03104 1.02963 0.882645 0.968446
4605.66 1.03058 1.03334 0.881789 0.968535
4606.04 1.03155 1.03831 0.880934 0.968624
4606.42 1.03522 1.04462 0.879109 0.968713
4606.79 1.04153 1.0522 0.877105 0.968802
4607.17 1.04986 1.06081 0.874311 0.968891
4607.55 1.05922 1.07009 0.870569 0.96898
4607.92 1.06821 1.07954 0.866657 0.969069
4608.3 1.07611 1.08858 0.859965 0.969158
4608.68 1.08453 1.09662 0.85335 0.969247
4609.06 1.09521 1.10309 0.848819 0.969336
4609.43 1.10638 1.10761 0.845278 0.969424
4609.81 1.11402 1.11 0.843197 0.969513
4610.19 1.11572 1.11033 0.844643 0.969601
4610.56 1.1119 1.10889 0.846093 0.96969
4610.94 1.10351 1.10609 0.849151 0.969778
4611.32 1.09299 1.10238 0.852397 0.969867
4611.7 1.08321 1.09816 0.854991 0.969955
4612.07 1.07664 1.09383 0.856972 0.970043
4612.45 1.07532 1.08974 0.858379 0.970131
4612.83 1.07951 1.08627 0.856027 0.970219
4613.21 1.08476 1.08377 0.853684 0.970307
4613.58 1.08636 1.08254 0.853853 0.970395
4613.96 1.0842 1.08267 0.854864 0.970483
4614.34 1.08054 1.08402 0.855616 0.97057
4614.72 1.07754 1.08621 0.855913 0.970658
4615.09 1.07718 1.08879 0.85621 0.970745
4615.47 1.08095 1.09137 0.854764 0.970832
4615.85 1.08833 1.09369 0.853288 0.97092
4616.23 1.09808 1.09568 0.850993 0.971006
4616.6 1.10608 1.09734 0.848156 0.971093
4616.98 1.10593 1.09866 0.846827 0.97118
4617.36 1.0958 1.09956 0.85098 0.971267
4617.74 1.08361 1.09993 0.855163 0.971353
4618.11 1.07748 1.09973 0.856402 0.971439
4618.49 1.07822 1.0991 0.857047 0.971525
4618.87 1.08365 1.09832 0.856847 0.971611
4619.25 1.09071 1.09778 0.855621 0.971697
4619.63 1.09534 1.09781 0.854443 0.971783
4620.0 1.09512 1.09852 0.853888 0.971868
4620.38 1.09305 1.0998 0.853332 0.971953
4620.76 1.09294 1.10136 0.854048 0.972038
4621.14 1.09506 1.10283 0.85534 0.972123
4621.52 1.09749 1.10396 0.855952 0.972208
4621.89 1.09846 1.10462 0.855029 0.972292
4622.27 1.09645 1.10484 0.854108 0.972377
4622.65 1.09059 1.10471 0.855956 0.972461
4623.03 1.08318 1.1043 0.858027 0.972545
4623.41 1.07754 1.10361 0.860487 0.972628
4623.79 1.07783 1.10259 0.863274 0.972712
4624.16 1.08896 1.10122 0.863614 0.972795
4624.54 1.11126 1.09956 0.852028 0.972878
4624.92 1.13395 1.09774 0.840673 0.972961
4625.3 1.146 1.09598 0.836035 0.973043
4625.68 1.14724 1.09448 0.833152 0.973126
4626.06 1.14242 1.09335 0.83302 0.973208
4626.43 1.13471 1.09259 0.836804 0.973289
4626.81 1.12527 1.09214 0.840749 0.973371
4627.19 1.1148 1.09184 0.848455 0.973452
4627.57 1.10298 1.09158 0.856268 0.973533
4627.95 1.08946 1.09132 0.864105 0.973614
4628.33 1.07633 1.0911 0.872005 0.973695
4628.71 1.06731 1.09105 0.877528 0.973775
4629.09 1.06442 1.09131 0.876722 0.973855
4629.46 1.06667 1.09197 0.875916 0.973935
4629.84 1.07258 1.09299 0.873977 0.974014
4630.22 1.07983 1.0942 0.871925 0.974093
4630.6 1.08591 1.09529 0.870107 0.974172
4630.98 1.08936 1.09591 0.868498 0.974251
4631.36 1.0898 1.09574 0.867066 0.974329
4631.74 1.08769 1.0946 0.866598 0.974407
4632.12 1.08563 1.09251 0.866131 0.974485
4632.5 1.08601 1.08963 0.864915 0.974562
4632.87 1.08687 1.08623 0.863488 0.974639
4633.25 1.08425 1.08257 0.863972 0.974716
4633.63 1.07759 1.07885 0.867285 0.974792
4634.01 1.0707 1.07515 0.870575 0.974868
4634.39 1.06682 1.07147 0.87248 0.974944
4634.77 1.06605 1.06778 0.874392 0.975019
4635.15 1.06762 1.064 0.87562 0.975094
4635.53 1.06895 1.06005 0.87649 0.975169
4635.91 1.06632 1.05588 0.878375 0.975244
4636.29 1.05825 1.05142 0.882848 0.975318
4636.67 1.04728 1.0467 0.887357 0.975391
4637.05 1.03627 1.04183 0.891927 0.975465
4637.42 1.02742 1.03698 0.896536 0.975537
4637.8 1.02261 1.03238 0.899308 0.97561
4638.18 1.0217 1.02825 0.900485 0.975682
4638.56 1.02267 1.02477 0.901485 0.975754
4638.94 1.02359 1.02209 0.901589 0.975825
4639.32 1.02281 1.0204 0.901694 0.975896
4639.7 1.01916 1.01988 0.902994 0.975967
4640.08 1.01475 1.02068 0.904605 0.976037
4640.46 1.01311 1.02282 0.904893 0.976107
4640.84 1.0155 1.02611 0.903388 0.976177
4641.22 1.0204 1.03009 0.901848 0.976246
4641.6 1.02621 1.03416 0.899648 0.976314
4641.98 1.03174 1.03766 0.897456 0.976383
4642.36 1.03595 1.04004 0.895966 0.97645
4642.74 1.03842 1.04093 0.894799 0.976518
4643.12 1.03917 1.04014 0.894189 0.976585
4643.5 1.03856 1.03759 0.894784 0.976651
4643.88 1.03748 1.0333 0.895381 0.976717
4644.26 1.03629 1.02735 0.897252 0.976783
4644.64 1.03263 1.01989 0.899202 0.976848
4645.02 1.02353 1.01123 0.904771 0.976913
4645.4 1.00952 1.00188 0.913069 0.976977
4645.78 0.993962 0.992517 0.92134 0.977041
4646.16 0.979878 0.983895 0.929179 0.977105
4646.54 0.969321 0.976721 0.93712 0.977167
4646.92 0.963946 0.971529 0.94187 0.97723
4647.3 0.963654 0.968621 0.946036 0.977292
4647.68 0.967612 0.968076 0.946835 0.977354
4648.06 0.974155 0.969804 0.943899 0.977415
4648.44 0.98073 0.973621 0.940861 0.977476
4648.82 0.985761 0.97928 0.936901 0.977537
4649.2 0.990624 0.986471 0.932966 0.977597
4649.58 0.997092 0.994807 0.927502 0.977657
4649.96 1.00571 1.00382 0.921552 0.977717
4650.34 1.01635 1.01301 0.915696 0.977777
4650.72 1.02839 1.02188 0.909957 0.977836
4651.1 1.04049 1.03002 0.904295 0.977895
4651.48 1.0513 1.0371 0.900815 0.977954
4651.87 1.0597 1.04288 0.897354 0.978013
4652.25 1.06464 1.04714 0.894701 0.978072
4652.63 1.06529 1.0497 0.892488 0.978131
4653.01 1.06096 1.05044 0.891719 0.978189
4653.39 1.05235 1.04942 0.89461 0.978248
4653.77 1.0425 1.04692 0.897516 0.978307
4654.15 1.03446 1.04343 0.900466 0.978365
4654.53 1.03001 1.03957 0.903434 0.978424
4654.91 1.03039 1.03601 0.904734 0.978482
4655.29 1.03489 1.03331 0.904688 0.978541
4655.67 1.04114 1.03193 0.903604 0.9786
4656.05 1.04727 1.03225 0.898175 0.978659
4656.43 1.05277 1.03452 0.892794 0.978718
4656.82 1.05729 1.03893 0.89241 0.978777
4657.2 1.06045 1.04549 0.89305 0.978837
4657.58 1.06189 1.054 0.892439 0.978896
4657.96 1.06254 1.06398 0.890404 0.978956
4658.34 1.06474 1.07474 0.887964 0.979016
4658.72 1.07068 1.08544 0.882069 0.979076
4659.1 1.08197 1.09521 0.876232 0.979137
4659.48 1.09926 1.10328 0.868818 0.979198
4659.87 1.11552 1.10905 0.860945 0.979259
4660.25 1.11995 1.11215 0.858535 0.979321
4660.63 1.11113 1.11248 0.864808 0.979383
4661.01 1.10043 1.11019 0.871046 0.979446
4661.39 1.09705 1.10561 0.872981 0.979509
4661.77 1.09868 1.09919 0.874923 0.979572
4662.15 1.10029 1.09143 0.876562 0.979636
4662.53 1.09652 1.08281 0.878047 0.9797
4662.92 1.0819 1.0737 0.88123 0.979765
4663.3 1.05849 1.06435 0.888341 0.979831
4663.68 1.04103 1.05482 0.89554 0.979897
4664.06 1.04088 1.04506 0.896424 0.979963
4664.44 1.04779 1.03485 0.896942 0.980031
4664.82 1.04592 1.02397 0.901746 0.980098
4665.21 1.03166 1.01229 0.909647 0.980167
4665.59 1.01111 0.999871 0.918011 0.980236
4665.97 0.990073 0.987042 0.927716 0.980306
4666.35 0.973242 0.974421 0.937576 0.980377
4666.73 0.963731 0.962823 0.94582 0.980448
4667.11 0.956246 0.953134 0.95391 0.980521
4667.5 0.942879 0.946153 0.962305 0.980594
4667.88 0.925749 0.942458 0.971003 0.980667
4668.26 0.916622 0.942326 0.977434 0.980742
4668.64 0.922689 0.945713 0.971221 0.980818
4669.02 0.938635 0.952292 0.965067 0.980894
4669.41 0.95756 0.961516 0.955899 0.980972
4669.79 0.975171 0.972678 0.946115 0.98105
4670.17 0.988439 0.984971 0.93668 0.981129
4670.55 0.99746 0.99754 0.92763 0.981209
4670.93 1.00592 1.00956 0.918959 0.981291
4671.32 1.0164 1.02032 0.912872 0.981373
4671.7 1.02753 1.02934 0.906844 0.981456
4672.08 1.0373 1.03642 0.902658 0.981541
4672.46 1.04499 1.04165 0.899136 0.981626
4672.85 1.05057 1.04534 0.896171 0.981713
4673.23 1.05409 1.04792 0.894088 0.981801
4673.61 1.05571 1.04986 0.892053 0.98189
4673.99 1.05573 1.05155 0.891487 0.98198
4674.38 1.0547 1.05331 0.890921 0.982071
4674.76 1.05334 1.05529 0.891656 0.982164
4675.14 1.05294 1.05754 0.893023 0.982258
4675.52 1.05516 1.0599 0.893603 0.982353
4675.91 1.05978 1.06209 0.892518 0.98245
4676.29 1.06359 1.06371 0.891435 0.982547
4676.67 1.06376 1.06436 0.892713 0.982647
4677.05 1.06046 1.06373 0.89407 0.982747
4677.44 1.05468 1.06167 0.896372 0.982849
4677.82 1.04789 1.05823 0.89927 0.982952
4678.2 1.04184 1.05364 0.902278 0.983057
4678.58 1.03712 1.0482 0.905565 0.983164
4678.97 1.03213 1.04228 0.90887 0.983271
4679.35 1.0257 1.03625 0.913021 0.983381
4679.73 1.02017 1.03046 0.91728 0.983491
4680.12 1.01882 1.02525 0.919466 0.983604
4680.5 1.02102 1.02098 0.92003 0.983718
4680.88 1.02288 1.01796 0.920504 0.983833
4681.26 1.02166 1.01648 0.920649 0.98395
4681.65 1.01731 1.01669 0.920793 0.984069
4682.03 1.01095 1.01861 0.921162 0.98419
4682.41 1.00876 1.02203 0.921567 0.984312
4682.8 1.01835 1.0266 0.917296 0.984436
4683.18 1.0381 1.03182 0.908693 0.984562
4683.56 1.05744 1.03718 0.900511 0.984689
4683.95 1.06901 1.04228 0.893944 0.984818
4684.33 1.07418 1.04684 0.887448 0.984949
4684.71 1.07555 1.05072 0.884383 0.985082
4685.1 1.07513 1.05387 0.882089 0.985217
4685.48 1.07463 1.05626 0.881402 0.985353
4685.86 1.07427 1.05786 0.882534 0.985492
4686.25 1.07264 1.05862 0.883431 0.985632
4686.63 1.06911 1.05858 0.882606 0.985775
4687.01 1.06537 1.05784 0.881781 0.985919
4687.4 1.06328 1.05661 0.881707 0.986065
4687.78 1.06294 1.05514 0.881852 0.986214
4688.16 1.06357 1.05365 0.882448 0.986364
4688.55 1.06434 1.05228 0.883653 0.986517
4688.93 1.06442 1.05103 0.884943 0.986671
4689.31 1.06312 1.04986 0.887194 0.986828
4689.7 1.0602 1.04867 0.889453 0.986987
4690.08 1.05562 1.04744 0.892431 0.987148
4690.47 1.05034 1.04622 0.89568 0.987311
4690.85 1.04579 1.04517 0.898086 0.987476
4691.23 1.04282 1.04449 0.899149 0.987644
4691.62 1.0414 1.04436 0.900227 0.987813
4692.0 1.0414 1.04492 0.901567 0.987986
4692.39 1.0425 1.04627 0.90291 0.98816
4692.77 1.04436 1.04843 0.903492 0.988337
4693.15 1.04677 1.05139 0.903749 0.988516
4693.54 1.0496 1.0551 0.902914 0.988697
4693.92 1.05309 1.05941 0.900117 0.988881
4694.31 1.05795 1.06402 0.897302 0.989067
4694.69 1.06452 1.06852 0.892241 0.989255
4695.07 1.07151 1.07241 0.887222 0.989447
4695.46 1.07723 1.07517 0.884111 0.98964
4695.84 1.08062 1.07637 0.881932 0.989836
4696.23 1.08097 1.07575 0.880728 0.990034
4696.61 1.07799 1.07325 0.881514 0.990235
4696.99 1.07208 1.06904 0.882301 0.990438
4697.38 1.06385 1.06348 0.886082 0.990644
4697.76 1.05465 1.05705 0.889933 0.990851
4698.15 1.04593 1.05026 0.895837 0.991061
4698.53 1.03755 1.04359 0.902939 0.991273
4698.92 1.02836 1.03737 0.909629 0.991487
4699.3 1.01822 1.03174 0.915236 0.991703
4699.69 1.00881 1.02672 0.920896 0.991921
4700.07 1.00179 1.02221 0.923821 0.992141
4700.45 0.997954 1.01811 0.926649 0.992362
4700.84 0.997732 1.01437 0.927545 0.992586
4701.22 1.00007 1.01103 0.927258 0.992811
4701.61 1.00284 1.00818 0.926987 0.993038
4701.99 1.00496 1.006 0.926757 0.993267
4702.38 1.00726 1.00467 0.926527 0.993497
4702.76 1.01062 1.00436 0.925502 0.993729
4703.15 1.01525 1.00518 0.924428 0.993963
4703.53 1.02112 1.00714 0.923427 0.994197
4703.92 1.02747 1.01007 0.922472 0.994434
4704.3 1.03302 1.01364 0.921639 0.994671
4704.69 1.03636 1.01746 0.921139 0.99491
4705.07 1.03583 1.02108 0.92064 0.995151
4705.46 1.03056 1.02414 0.920572 0.995392
4705.84 1.02365 1.02638 0.920539 0.995635
4706.23 1.01919 1.0277 0.918089 0.995879
4706.61 1.01784 1.02814 0.913969 0.996123
4707.0 1.01747 1.02787 0.910219 0.996369
4707.38 1.01664 1.02717 0.907506 0.996616
4707.77 1.01539 1.02638 0.904805 0.996864
4708.15 1.01413 1.0259 0.90374 0.997112
4708.54 1.01452 1.02613 0.902828 0.997362
4708.92 1.01847 1.02743 0.9018 0.997612
4709.31 1.0258 1.03009 0.900687 0.997863
4709.69 1.03459 1.03417 0.898526 0.998115
4710.08 1.0432 1.0395 0.893109 0.998367
4710.46 1.05061 1.04564 0.887741 0.99862
4710.85 1.05591 1.05195 0.884276 0.998873
4711.23 1.05843 1.05773 0.881022 0.999127
4711.62 1.05763 1.06242 0.879166 0.999381
4712.01 1.05372 1.0657 0.878349 0.999636
4712.39 1.04754 1.06751 0.877926 0.99989
4712.78 1.04116 1.06804 0.878767 1.00015
4713.16 1.03908 1.06761 0.879609 1.0004
4713.55 1.04481 1.06667 0.876897 1.00066
4713.93 1.05485 1.06574 0.873819 1.00091
4714.32 1.06356 1.06537 0.87148 1.00117
4714.71 1.06842 1.06609 0.869697 1.00142
4715.09 1.06949 1.06828 0.868186 1.00168
4715.48 1.06784 1.07211 0.867543 1.00194
4715.86 1.06644 1.07749 0.8669 1.00219
4716.25 1.06825 1.08417 0.866728 1.00245
4716.63 1.0751 1.0918 0.866606 1.0027
4717.02 1.08824 1.10006 0.862089 1.00296
4717.41 1.10537 1.1087 0.854356 1.00321
4717.79 1.12126 1.11748 0.847389 1.00346
4718.18 1.1325 1.12615 0.84259 1.00372
4718.56 1.13947 1.13437 0.837832 1.00397
4718.95 1.14317 1.14174 0.835475 1.00422
4719.34 1.1453 1.14786 0.833368 1.00448
4719.72 1.14767 1.15242 0.83255 1.00473
4720.11 1.14955 1.15531 0.832674 1.00498
4720.5 1.14814 1.15663 0.832558 1.00523
4720.88 1.14363 1.15665 0.83171 1.00548
4721.27 1.14204 1.1558 0.830863 1.00573
4721.65 1.14851 1.15453 0.828047 1.00597
4722.04 1.15975 1.15326 0.825066 1.00622
4722.43 1.16992 1.15234 0.82306 1.00647
4722.81 1.17477 1.15191 0.821735 1.00671
4723.2 1.17135 1.15196 0.821416 1.00696
4723.59 1.16055 1.15225 0.823997 1.0072
4723.97 1.15051 1.15243 0.82659 1.00744
4724.36 1.14819 1.15203 0.827563 1.00768
4724.75 1.15101 1.15057 0.828412 1.00792
4725.13 1.15352 1.14761 0.82983 1.00816
4725.52 1.15218 1.14281 0.831631 1.00839
4725.91 1.14491 1.13598 0.834424 1.00863
4726.29 1.131 1.12717 0.839886 1.00886
4726.68 1.11213 1.11666 0.845403 1.00909
4727.07 1.09081 1.10502 0.855005 1.00932
4727.45 1.07199 1.09295 0.865011 1.00955
4727.84 1.06094 1.0812 0.87271 1.00978
4728.23 1.05685 1.07045 0.878962 1.01
4728.61 1.05451 1.0612 0.883848 1.01023
4729.0 1.05119 1.05377 0.885274 1.01045
4729.39 1.0487 1.04833 0.886704 1.01067
4729.77 1.04902 1.04497 0.884038 1.01088
4730.16 1.05273 1.04375 0.881238 1.0111
4730.55 1.05986 1.04466 0.87679 1.01131
4730.93 1.06835 1.0476 0.871449 1.01152
4731.32 1.0747 1.05232 0.867735 1.01173
4731.71 1.07753 1.0584 0.867479 1.01194
4732.1 1.07893 1.06526 0.867223 1.01215
4732.48 1.08097 1.07228 0.867165 1.01235
4732.87 1.08421 1.0789 0.86711 1.01255
4733.26 1.0888 1.08476 0.865959 1.01275
4733.64 1.09428 1.08968 0.86426 1.01294
4734.03 1.09979 1.09364 0.862343 1.01314
4734.42 1.10433 1.09668 0.860003 1.01333
4734.81 1.10671 1.09884 0.857781 1.01352
4735.19 1.10626 1.10021 0.861544 1.0137
4735.58 1.10453 1.10097 0.865332 1.01388
4735.97 1.10342 1.10147 0.865739 1.01406
4736.36 1.1033 1.10217 0.864655 1.01424
4736.74 1.1036 1.10353 0.863356 1.01442
4737.13 1.10414 1.10585 0.861697 1.01459
4737.52 1.10527 1.10913 0.860036 1.01476
4737.91 1.10749 1.11307 0.858257 1.01492
4738.29 1.11172 1.11719 0.856484 1.01508
4738.68 1.11857 1.12102 0.853106 1.01524
4739.07 1.12552 1.12426 0.849152 1.0154
4739.46 1.12836 1.12684 0.847996 1.01555
4739.85 1.12657 1.12889 0.850889 1.0157
4740.23 1.12428 1.13057 0.853593 1.01585
4740.62 1.12492 1.13205 0.854151 1.01599
4741.01 1.12868 1.13338 0.854709 1.01613
4741.4 1.13489 1.13459 0.853283 1.01627
4741.79 1.14061 1.1357 0.851258 1.0164
4742.17 1.14192 1.13675 0.850066 1.01653
4742.56 1.13836 1.13783 0.849901 1.01666
4742.95 1.1335 1.13902 0.850191 1.01678
4743.34 1.12988 1.14036 0.853622 1.0169
4743.73 1.12671 1.14187 0.857075 1.01702
4744.11 1.12307 1.14355 0.856493 1.01713
4744.5 1.12143 1.14543 0.854951 1.01723
4744.89 1.12571 1.14755 0.850471 1.01734
4745.28 1.13934 1.14993 0.842993 1.01744
4745.67 1.16524 1.15252 0.834701 1.01753
4746.05 1.20025 1.1552 0.822195 1.01763
4746.44 1.2266 1.15779 0.809967 1.01771
4746.83 1.22785 1.16011 0.815376 1.0178
4747.22 1.20942 1.16206 0.823917 1.01788
4747.61 1.18499 1.16363 0.832614 1.01795
4748.0 1.16372 1.16488 0.84147 1.01803
4748.39 1.15068 1.16585 0.849509 1.0181
4748.77 1.14813 1.16654 0.854207 1.01816
4749.16 1.15269 1.16683 0.858945 1.01822
4749.55 1.16032 1.16653 0.856446 1.01828
4749.94 1.16726 1.16544 0.853182 1.01834
4750.33 1.17003 1.16339 0.85386 1.01839
4750.72 1.16768 1.16034 0.857323 1.01844
4751.11 1.16131 1.15636 0.860929 1.01848
4751.49 1.15222 1.15167 0.864886 1.01852
4751.88 1.14196 1.14651 0.868871 1.01856
4752.27 1.13199 1.14116 0.872674 1.01859
4752.66 1.12335 1.13584 0.876492 1.01863
4753.05 1.11696 1.13071 0.880188 1.01865
4753.44 1.11357 1.12588 0.883825 1.01868
4753.83 1.11383 1.12146 0.885686 1.0187
4754.22 1.1168 1.11756 0.883858 1.01872
4754.61 1.11907 1.11427 0.88204 1.01873
4754.99 1.11797 1.11169 0.880494 1.01874
4755.38 1.11458 1.10988 0.878951 1.01875
4755.77 1.11096 1.10889 0.878097 1.01876
4756.16 1.10968 1.10876 0.877536 1.01876
4756.55 1.11355 1.1095 0.877509 1.01876
4756.94 1.12153 1.11106 0.878328 1.01876
4757.33 1.12739 1.11328 0.879012 1.01875
4757.72 1.1267 1.11593 0.878009 1.01875
4758.11 1.12197 1.1187 0.877007 1.01873
4758.5 1.11691 1.12129 0.875694 1.01872
4758.89 1.1136 1.12341 0.874287 1.0187
4759.28 1.11325 1.12479 0.873084 1.01868
4759.67 1.11584 1.12515 0.872128 1.01866
4760.05 1.11995 1.12428 0.871408 1.01864
4760.44 1.12341 1.12203 0.872128 1.01861
4760.83 1.12226 1.1184 0.872848 1.01858
4761.22 1.11307 1.11352 0.88018 1.01855
4761.61 1.09808 1.10771 0.888994 1.01851
4762.0 1.08177 1.10132 0.896918 1.01847
4762.39 1.06766 1.09467 0.90399 1.01843
4762.78 1.05829 1.088 0.910192 1.01839
4763.17 1.05513 1.08141 0.912823 1.01835
4763.56 1.05747 1.07497 0.915464 1.0183
4763.95 1.06364 1.06874 0.911181 1.01825
4764.34 1.0685 1.06287 0.906163 1.0182
4764.73 1.0661 1.05765 0.907342 1.01815
4765.12 1.05666 1.05344 0.912835 1.01809
4765.51 1.04529 1.05065 0.9179 1.01803
4765.9 1.03625 1.04962 0.921782 1.01797
4766.29 1.03218 1.05058 0.925689 1.01791
4766.68 1.03499 1.05354 0.924207 1.01785
4767.07 1.04424 1.0583 0.922584 1.01778
4767.46 1.0587 1.06453 0.914058 1.01771
4767.85 1.0751 1.0718 0.902267 1.01764
4768.24 1.08896 1.07964 0.893682 1.01757
4768.63 1.0979 1.08759 0.890496 1.01749
4769.02 1.10258 1.09517 0.887257 1.01742
4769.41 1.1042 1.10193 0.882771 1.01734
4769.8 1.10493 1.10752 0.878318 1.01726
4770.19 1.107 1.11174 0.873795 1.01718
4770.58 1.11176 1.11462 0.869272 1.0171
4770.97 1.11999 1.11642 0.865903 1.01701
4771.36 1.12965 1.11757 0.863974 1.01693
4771.75 1.13537 1.11854 0.862441 1.01684
4772.14 1.13398 1.11974 0.863415 1.01675
4772.53 1.12867 1.12148 0.864391 1.01666
4772.92 1.12347 1.12392 0.864254 1.01657
4773.31 1.12067 1.12707 0.863889 1.01648
4773.71 1.12184 1.13086 0.862328 1.01638
4774.1 1.1273 1.13505 0.859695 1.01628
4774.49 1.13619 1.13937 0.856317 1.01619
4774.88 1.1469 1.1435 0.850311 1.01609
4775.27 1.15628 1.14721 0.844367 1.01599
4775.66 1.1619 1.15036 0.845015 1.01589
4776.05 1.16615 1.15293 0.846258 1.01578
4776.44 1.17261 1.15495 0.845872 1.01568
4776.83 1.18059 1.15643 0.844462 1.01558
4777.22 1.18624 1.15733 0.843302 1.01547
4777.61 1.18573 1.15758 0.842694 1.01536
4778.0 1.1754 1.15711 0.842152 1.01525
4778.39 1.15488 1.15589 0.849545 1.01514
4778.79 1.13642 1.15396 0.857036 1.01503
4779.18 1.13369 1.15145 0.860606 1.01492
4779.57 1.14357 1.14844 0.862524 1.01481
4779.96 1.15336 1.14503 0.86404 1.0147
4780.35 1.15545 1.14124 0.864958 1.01459
4780.74 1.14904 1.13707 0.865947 1.01447
4781.13 1.13528 1.1325 0.867548 1.01436
4781.52 1.11999 1.12756 0.869154 1.01424
4781.91 1.10916 1.12236 0.873321 1.01412
4782.31 1.10419 1.11711 0.878154 1.01401
4782.7 1.10433 1.11212 0.880721 1.01389
4783.09 1.10754 1.10771 0.881019 1.01377
4783.48 1.11046 1.10415 0.881342 1.01365
4783.87 1.11047 1.1015 0.881766 1.01353
4784.26 1.10669 1.09962 0.88219 1.01341
4784.65 1.09883 1.09819 0.884611 1.01329
4785.05 1.08846 1.0969 0.887258 1.01317
4785.44 1.07789 1.09557 0.893428 1.01305
4785.83 1.07064 1.09425 0.901997 1.01293
4786.22 1.07118 1.09318 0.905873 1.01281
4786.61 1.07993 1.09261 0.898911 1.01269
4787.0 1.09063 1.09266 0.892061 1.01257
4787.39 1.09761 1.0932 0.889564 1.01244
4787.79 1.10001 1.09399 0.887077 1.01232
4788.18 1.09841 1.09476 0.887377 1.0122
4788.57 1.09592 1.09545 0.888815 1.01208
4788.96 1.09703 1.09622 0.889229 1.01195
4789.35 1.10234 1.09739 0.888181 1.01183
4789.75 1.10762 1.0993 0.887147 1.01171
4790.14 1.10981 1.10216 0.886209 1.01159
4790.53 1.11015 1.10601 0.885271 1.01146
4790.92 1.11057 1.11077 0.88358 1.01134
4791.31 1.11288 1.11634 0.881729 1.01122
4791.71 1.11874 1.12266 0.879239 1.0111
4792.1 1.12906 1.12969 0.876177 1.01098
4792.49 1.14394 1.13741 0.872732 1.01086
4792.88 1.16092 1.14566 0.867971 1.01073
4793.27 1.17229 1.15417 0.863248 1.01061
4793.67 1.17213 1.16248 0.860555 1.01049
4794.06 1.16653 1.17012 0.858016 1.01037
4794.45 1.16478 1.17658 0.855434 1.01025
4794.84 1.1702 1.18147 0.852833 1.01013
4795.24 1.18195 1.18454 0.850322 1.01002
4795.63 1.19585 1.18566 0.847971 1.0099
4796.02 1.20288 1.18481 0.845766 1.00978
4796.41 1.19689 1.18206 0.846168 1.00966
4796.8 1.18285 1.17757 0.846569 1.00955
4797.2 1.16776 1.17161 0.850452 1.00943
4797.59 1.15486 1.16459 0.855493 1.00932
4797.98 1.1455 1.15703 0.861308 1.0092
4798.37 1.13997 1.14958 0.868038 1.00909
4798.77 1.13738 1.14287 0.8747 1.00898
4799.16 1.13643 1.13749 0.880723 1.00886
4799.55 1.13489 1.13387 0.886808 1.00875
4799.95 1.13116 1.13222 0.885318 1.00864
4800.34 1.12788 1.13253 0.882793 1.00853
4800.73 1.12898 1.13459 0.880666 1.00842
4801.12 1.13452 1.13802 0.878815 1.00831
4801.52 1.14154 1.14232 0.877137 1.0082
4801.91 1.14761 1.14695 0.875859 1.0081
4802.3 1.15145 1.15135 0.874587 1.00799
4802.7 1.15244 1.15502 0.874146 1.00788
4803.09 1.15214 1.15754 0.873705 1.00778
4803.48 1.15246 1.15862 0.875102 1.00767
4803.87 1.15351 1.15814 0.877237 1.00757
4804.27 1.15441 1.15613 0.878146 1.00747
4804.66 1.1544 1.15285 0.877393 1.00737
4805.05 1.15287 1.14861 0.876927 1.00726
4805.45 1.14943 1.1438 0.878286 1.00716
4805.84 1.14431 1.13875 0.879648 1.00706
4806.23 1.13793 1.13372 0.883795 1.00696
4806.63 1.1315 1.12896 0.888479 1.00687
4807.02 1.12646 1.12474 0.890536 1.00677
4807.41 1.12277 1.12136 0.890492 1.00667
4807.81 1.11908 1.1191 0.891857 1.00658
4808.2 1.11513 1.11816 0.897062 1.00648
4808.59 1.1127 1.11853 0.902313 1.00639
4808.99 1.11353 1.12004 0.904926 1.0063
4809.38 1.11799 1.12235 0.907501 1.00621
4809.77 1.12593 1.12508 0.905633 1.00612
4810.17 1.1349 1.12793 0.901829 1.00603
4810.56 1.14117 1.13068 0.899809 1.00594
4810.95 1.14327 1.13323 0.900355 1.00585
4811.35 1.14265 1.13553 0.900595 1.00576
4811.74 1.14105 1.13758 0.898629 1.00568
4812.14 1.14058 1.13937 0.896669 1.00559
4812.53 1.14311 1.14093 0.893766 1.00551
4812.92 1.14871 1.14232 0.890691 1.00543
4813.32 1.15655 1.14367 0.887552 1.00535
4813.71 1.16261 1.14514 0.884362 1.00526
4814.1 1.16019 1.14685 0.882217 1.00519
4814.5 1.14843 1.14891 0.882938 1.00511
4814.89 1.13766 1.15137 0.88366 1.00503
4815.29 1.13692 1.15421 0.880287 1.00495
4815.68 1.14483 1.15735 0.876849 1.00488
4816.07 1.15708 1.16069 0.873931 1.0048
4816.47 1.16848 1.16408 0.871246 1.00473
4816.86 1.17341 1.16742 0.870852 1.00466
4817.26 1.17129 1.17063 0.873735 1.00459
4817.65 1.1679 1.17365 0.87613 1.00452
4818.04 1.16758 1.17644 0.875101 1.00445
4818.44 1.16965 1.17885 0.874073 1.00439
4818.83 1.17257 1.18066 0.873755 1.00432
4819.23 1.17495 1.18157 0.873566 1.00425
4819.62 1.17546 1.18126 0.874256 1.00419
4820.02 1.17323 1.17948 0.875633 1.00413
4820.41 1.16783 1.17613 0.877742 1.00407
4820.8 1.15989 1.17122 0.881748 1.00401
4821.2 1.15202 1.16486 0.885782 1.00395
4821.59 1.14631 1.15728 0.887866 1.00389
4821.99 1.1421 1.14882 0.889955 1.00384
4822.38 1.13807 1.13996 0.892611 1.00378
4822.78 1.13323 1.13135 0.895501 1.00373
4823.17 1.12681 1.1237 0.898687 1.00368
4823.57 1.11864 1.11765 0.902257 1.00363
4823.96 1.10926 1.11359 0.905843 1.00358
4824.36 1.10048 1.11158 0.909426 1.00353
4824.75 1.09731 1.11136 0.91303 1.00348
4825.15 1.10383 1.11246 0.910392 1.00344
4825.54 1.11578 1.11438 0.906879 1.0034
4825.94 1.12612 1.11669 0.90378 1.00335
4826.33 1.13142 1.11908 0.900963 1.00331
4826.72 1.13107 1.12132 0.898852 1.00327
4827.12 1.12648 1.12321 0.898246 1.00324
4827.51 1.12219 1.12455 0.89778 1.0032
4827.91 1.12122 1.12517 0.900957 1.00316
4828.3 1.12024 1.12498 0.904151 1.00313
4828.7 1.11515 1.124 0.908273 1.0031
4829.09 1.10759 1.12234 0.912716 1.00307
4829.49 1.10198 1.12016 0.915505 1.00304
4829.89 1.10085 1.1176 0.916483 1.00301
4830.28 1.10467 1.11481 0.91672 1.00298
4830.68 1.11245 1.11195 0.914058 1.00296
4831.07 1.12024 1.10925 0.911408 1.00294
4831.47 1.12448 1.10702 0.910503 1.00291
4831.86 1.12589 1.10558 0.909738 1.00289
4832.26 1.12638 1.10518 0.909146 1.00288
4832.65 1.12646 1.10591 0.908647 1.00286
4833.05 1.12573 1.1077 0.909057 1.00284
4833.44 1.12398 1.11031 0.910999 1.00283
4833.84 1.12135 1.11346 0.913179 1.00282
4834.23 1.11816 1.11685 0.917542 1.00281
4834.63 1.1153 1.12022 0.921936 1.0028
4835.03 1.1137 1.12334 0.919427 1.00279
4835.42 1.11421 1.12599 0.915441 1.00279
4835.82 1.11757 1.12798 0.911484 1.00278
4836.21 1.12279 1.12909 0.907557 1.00278
4836.61 1.12745 1.12916 0.904527 1.00278
4837.0 1.12948 1.12809 0.903839 1.00278
4837.4 1.12762 1.12585 0.903152 1.00278
4837.8 1.12138 1.12255 0.907715 1.00279
4838.19 1.11304 1.11844 0.912323 1.0028
4838.59 1.10542 1.11387 0.914341 1.0028
4838.98 1.09963 1.10922 0.915364 1.00281
4839.38 1.09587 1.10487 0.916718 1.00283
4839.77 1.09401 1.10105 0.918478 1.00284
4840.17 1.09362 1.09791 0.920215 1.00285
4840.57 1.09415 1.09545 0.921829 1.00287
4840.96 1.09485 1.09361 0.923449 1.00289
4841.36 1.09495 1.09231 0.924043 1.00291
4841.75 1.09357 1.09151 0.924531 1.00293
4842.15 1.09004 1.09127 0.923777 1.00296
4842.55 1.08612 1.09175 0.922306 1.00298
4842.94 1.08527 1.09317 0.921212 1.00301
4843.34 1.08906 1.09569 0.920778 1.00304
4843.74 1.09628 1.09928 0.920303 1.00308
4844.13 1.10515 1.10369 0.919422 1.00311
4844.53 1.11288 1.10847 0.918542 1.00314
4844.92 1.11708 1.11309 0.91482 1.00318
4845.32 1.1193 1.11708 0.910501 1.00322
4845.72 1.12263 1.1201 0.908654 1.00326
4846.11 1.12743 1.12198 0.908814 1.00331
4846.51 1.13167 1.12265 0.909471 1.00335
4846.91 1.1339 1.12211 0.911411 1.0034
4847.3 1.13383 1.12046 0.913361 1.00345
4847.7 1.13153 1.11787 0.915665 1.0035
4848.1 1.12812 1.11466 0.917978 1.00355
4848.49 1.12482 1.11127 0.917895 1.00361
4848.89 1.12202 1.10814 0.916974 1.00367
4849.29 1.11965 1.10562 0.917075 1.00372
4849.68 1.11745 1.10387 0.918321 1.00378
4850.08 1.1149 1.10278 0.919719 1.00385
4850.48 1.11176 1.10211 0.921705 1.00391
4850.87 1.10838 1.10153 0.923698 1.00398
4851.27 1.10528 1.10075 0.925648 1.00404
4851.67 1.10358 1.09952 0.927601 1.00411
4852.07 1.10434 1.09758 0.927634 1.00418
4852.46 1.10571 1.09461 0.926715 1.00426
4852.86 1.10406 1.09028 0.92692 1.00433
4853.26 1.09789 1.08434 0.928802 1.0044
4853.65 1.08852 1.07679 0.930981 1.00448
4854.05 1.07748 1.06795 0.935044 1.00456
4854.45 1.06631 1.05848 0.939134 1.00464
4854.85 1.05633 1.04919 0.944877 1.00472
4855.24 1.04746 1.04085 0.950921 1.00481
4855.64 1.03909 1.03391 0.956255 1.00489
4856.04 1.03103 1.02832 0.961125 1.00498
4856.43 1.02335 1.02357 0.966373 1.00506
4856.83 1.01591 1.0188 0.972336 1.00515
4857.23 1.00818 1.01305 0.978482 1.00524
4857.63 0.999607 1.00554 0.986324 1.00533
4858.02 0.989612 0.99578 0.99426 1.00543
4858.42 0.977653 0.983633 1.00451 1.00552
4858.82 0.96337 0.969287 1.01546 1.00562
4859.22 0.946539 0.953179 1.02755 1.00571
4859.61 0.927951 0.935973 1.04066 1.00581
4860.01 0.909299 0.918586 1.05315 1.00591
4860.41 0.892163 0.902192 1.06357 1.00601
4860.81 0.877865 0.88815 1.07407 1.00611
4861.2 0.867576 0.877798 1.08026 1.00622
4861.6 0.861982 0.872166 1.08651 1.00632
4862.0 0.861657 0.871716 1.08728 1.00642
4862.4 0.867174 0.876252 1.08626 1.00653
4862.8 0.879017 0.885032 1.08009 1.00664
4863.19 0.895457 0.897046 1.06874 1.00675
4863.59 0.912516 0.911293 1.05757 1.00685
4863.99 0.927359 0.926956 1.04657 1.00697
4864.39 0.939711 0.943401 1.03574 1.00708
4864.79 0.950084 0.96009 1.02634 1.00719
4865.18 0.961076 0.976483 1.01711 1.0073
4865.58 0.975471 0.992008 1.00872 1.00742
4865.98 0.992129 1.00612 1.00072 1.00753
4866.38 1.0077 1.01837 0.992929 1.00765
4866.78 1.02044 1.02847 0.985361 1.00776
4867.17 1.03053 1.03629 0.978375 1.00788
4867.57 1.03812 1.04184 0.973603 1.008
4867.97 1.04315 1.04515 0.968865 1.00812
4868.37 1.04541 1.04626 0.967816 1.00824
4868.77 1.04418 1.04515 0.967057 1.00836
4869.17 1.03868 1.0418 0.97191 1.00848
4869.56 1.02977 1.03633 0.979635 1.0086
4869.96 1.01928 1.02907 0.987418 1.00872
4870.36 1.00892 1.02072 0.995243 1.00885
4870.76 1.00017 1.01228 1.00281 1.00897
4871.16 0.994221 1.0049 1.00843 1.00909
4871.56 0.99155 0.999618 1.01411 1.00922
4871.96 0.992323 0.997136 1.01602 1.00934
4872.35 0.995541 0.997648 1.01747 1.00947
4872.75 0.999868 1.00087 1.01525 1.0096
4873.15 1.0048 1.00621 1.01092 1.00972
4873.55 1.01043 1.01295 1.00558 1.00985
4873.95 1.01719 1.02051 0.998593 1.00998
4874.35 1.02597 1.02851 0.991452 1.01011
4874.75 1.03746 1.03677 0.982751 1.01023
4875.15 1.05169 1.04523 0.974162 1.01036
4875.54 1.06802 1.05385 0.96493 1.01049
4875.94 1.08242 1.06247 0.955711 1.01062
4876.34 1.08996 1.07087 0.951375 1.01075
4876.74 1.09058 1.0788 0.950147 1.01088
4877.14 1.08789 1.08606 0.948907 1.01101
4877.54 1.08509 1.09265 0.947644 1.01115
4877.94 1.08461 1.09864 0.946219 1.01128
4878.34 1.08824 1.10412 0.943264 1.01141
4878.74 1.09617 1.10903 0.940322 1.01154
4879.14 1.1079 1.11313 0.933646 1.01167
4879.53 1.12078 1.11609 0.926342 1.0118
4879.93 1.13136 1.11762 0.919804 1.01193
4880.33 1.13777 1.11771 0.913809 1.01207
4880.73 1.13941 1.11663 0.909494 1.0122
4881.13 1.13663 1.11487 0.908453 1.01233
4881.53 1.13121 1.11291 0.907817 1.01246
4881.93 1.12541 1.11098 0.91191 1.01259
4882.33 1.12279 1.10902 0.91603 1.01273
4882.73 1.12601 1.10669 0.914411 1.01286
4883.13 1.13026 1.10359 0.911588 1.01299
4883.53 1.12796 1.09946 0.913954 1.01312
4883.93 1.11727 1.09429 0.920233 1.01325
4884.33 1.10116 1.08839 0.927541 1.01339
4884.73 1.08322 1.08224 0.937011 1.01352
4885.13 1.06777 1.07634 0.946535 1.01365
4885.53 1.05825 1.07112 0.954942 1.01378
4885.93 1.05496 1.06679 0.963461 1.01391
4886.33 1.05722 1.06333 0.960943 1.01404
4886.73 1.06194 1.06055 0.955972 1.01417
4887.13 1.06513 1.05814 0.95488 1.0143
4887.53 1.06507 1.05578 0.956748 1.01443
4887.93 1.06193 1.05319 0.959667 1.01456
4888.33 1.05661 1.05022 0.964888 1.01469
4888.73 1.05099 1.04679 0.969926 1.01482
4889.13 1.04597 1.04297 0.971729 1.01495
4889.53 1.0387 1.03896 0.973538 1.01507
4889.93 1.02643 1.03521 0.98163 1.0152
4890.33 1.01249 1.03242 0.991277 1.01533
4890.73 1.00269 1.03149 0.995974 1.01546
4891.13 1.00055 1.03332 0.996788 1.01558
4891.53 1.00763 1.03858 0.994386 1.01571
4891.93 1.02371 1.04749 0.985118 1.01583
4892.33 1.04576 1.05976 0.975742 1.01596
4892.73 1.07011 1.07475 0.963304 1.01608
4893.13 1.09171 1.09166 0.9511 1.0162
4893.53 1.10624 1.10973 0.941815 1.01633
4893.93 1.11625 1.12828 0.933249 1.01645
4894.33 1.1271 1.14662 0.923766 1.01657
4894.73 1.14203 1.16401 0.913667 1.01669
4895.13 1.16248 1.17963 0.902644 1.01681
4895.53 1.18607 1.19273 0.889602 1.01693
4895.93 1.20444 1.20275 0.877784 1.01705
4896.33 1.21169 1.2095 0.877383 1.01716
4896.73 1.21154 1.21312 0.876983 1.01728
4897.13 1.20907 1.21401 0.878613 1.01739
4897.53 1.20564 1.21267 0.880663 1.01751
4897.93 1.20105 1.20956 0.883202 1.01762
4898.33 1.19484 1.2051 0.886095 1.01774
4898.74 1.18636 1.19967 0.888677 1.01785
4899.14 1.17701 1.19365 0.890632 1.01796
4899.54 1.17133 1.18745 0.892563 1.01807
4899.94 1.17176 1.18146 0.8942 1.01818
4900.34 1.17355 1.17593 0.895842 1.01829
4900.74 1.17143 1.17094 0.898289 1.0184
4901.14 1.16571 1.16641 0.900891 1.01851
4901.54 1.15901 1.16221 0.902718 1.01861
4901.94 1.1561 1.15831 0.904034 1.01872
4902.34 1.16325 1.15488 0.90207 1.01883
4902.75 1.17877 1.15228 0.894332 1.01893
4903.15 1.18947 1.15094 0.887876 1.01903
4903.55 1.18666 1.15119 0.890473 1.01914
4903.95 1.17714 1.15313 0.893082 1.01924
4904.35 1.16968 1.15658 0.894866 1.01934
4904.75 1.16868 1.16107 0.896533 1.01945
4905.15 1.17643 1.16595 0.895757 1.01955
4905.55 1.18806 1.1705 0.893552 1.01965
4905.96 1.19371 1.17405 0.892829 1.01975
4906.36 1.19022 1.17606 0.894443 1.01985
4906.76 1.1835 1.17616 0.896043 1.01995
4907.16 1.17811 1.17422 0.897542 1.02005
4907.56 1.17347 1.17026 0.899045 1.02015
4907.96 1.16815 1.16448 0.902108 1.02025
4908.36 1.1607 1.15723 0.905354 1.02035
4908.77 1.14996 1.14898 0.911089 1.02045
4909.17 1.13794 1.14032 0.918154 1.02054
4909.57 1.12869 1.13197 0.923716 1.02064
4909.97 1.12348 1.12463 0.927142 1.02074
4910.37 1.12008 1.11895 0.930239 1.02084
4910.77 1.11703 1.11538 0.93177 1.02093
4911.18 1.11504 1.1141 0.933306 1.02103
4911.58 1.11527 1.11502 0.932248 1.02113
4911.98 1.11952 1.11787 0.931031 1.02122
4912.38 1.12941 1.12228 0.925801 1.02132
4912.78 1.14258 1.12787 0.918932 1.02142
4913.19 1.15439 1.13428 0.913626 1.02151
4913.59 1.16257 1.14117 0.91008 1.02161
4913.99 1.16737 1.14812 0.906957 1.0217
4914.39 1.16935 1.15459 0.905235 1.0218
4914.79 1.16937 1.15992 0.903518 1.0219
4915.2 1.16829 1.16333 0.903405 1.02199
4915.6 1.16675 1.16407 0.903316 1.02209
4916.0 1.16511 1.16148 0.905475 1.02219
4916.4 1.16136 1.15512 0.908406 1.02228
4916.81 1.15237 1.14485 0.913742 1.02238
4917.21 1.13718 1.13092 0.921453 1.02247
4917.61 1.11689 1.11395 0.930194 1.02257
4918.01 1.09313 1.09491 0.941584 1.02267
4918.41 1.06822 1.07502 0.953293 1.02277
4918.82 1.04435 1.05563 0.968136 1.02286
4919.22 1.02297 1.03805 0.983329 1.02296
4919.62 1.00529 1.02343 0.993129 1.02306
4920.02 0.992184 1.01264 1.00162 1.02316
4920.43 0.984345 1.0062 1.00615 1.02326
4920.83 0.982218 1.00426 1.00754 1.02335
4921.23 0.986015 1.00655 1.00694 1.02345
4921.63 0.995626 1.01246 1.00229 1.02355
4922.04 1.01044 1.02109 0.997281 1.02365
4922.44 1.02879 1.03149 0.988598 1.02375
4922.84 1.04602 1.04277 0.980028 1.02385
4923.25 1.05786 1.05428 0.973469 1.02395
4923.65 1.06604 1.06566 0.967284 1.02406
4924.05 1.07444 1.07683 0.960821 1.02416
4924.45 1.08527 1.08784 0.95422 1.02426
4924.86 1.0995 1.09879 0.947288 1.02436
4925.26 1.11585 1.10968 0.939816 1.02447
4925.66 1.13011 1.12039 0.932793 1.02457
4926.07 1.13969 1.13079 0.927767 1.02468
4926.47 1.1466 1.14076 0.922781 1.02478
4926.87 1.15329 1.15033 0.918763 1.02489
4927.28 1.1609 1.15965 0.914847 1.025
4927.68 1.17005 1.1689 0.910887 1.0251
4928.08 1.1806 1.17811 0.906923 1.02521
4928.49 1.19189 1.18704 0.902455 1.02532
4928.89 1.20207 1.19518 0.897401 1.02543
4929.29 1.20792 1.20189 0.893374 1.02554
4929.7 1.20835 1.20659 0.892706 1.02565
4930.1 1.20667 1.20894 0.892039 1.02576
4930.5 1.20597 1.20888 0.89229 1.02588
4930.91 1.2062 1.2065 0.892545 1.02599
4931.31 1.20628 1.20204 0.893522 1.02611
4931.71 1.20363 1.19575 0.894724 1.02622
4932.12 1.1951 1.18801 0.897032 1.02634
4932.52 1.18246 1.17932 0.900315 1.02646
4932.92 1.17184 1.17041 0.903263 1.02657
4933.33 1.16624 1.16203 0.905414 1.02669
4933.73 1.16309 1.15481 0.907625 1.02681
4934.13 1.15961 1.14899 0.910485 1.02694
4934.54 1.15387 1.14437 0.913359 1.02706
4934.94 1.14459 1.14037 0.917463 1.02718
4935.35 1.13304 1.1363 0.92182 1.02731
4935.75 1.12152 1.13159 0.926974 1.02743
4936.15 1.11181 1.12601 0.932652 1.02756
4936.56 1.10526 1.11966 0.938518 1.02769
4936.96 1.10131 1.11288 0.944655 1.02782
4937.36 1.09683 1.10616 0.950886 1.02795
4937.77 1.08896 1.10006 0.957362 1.02808
4938.17 1.07603 1.09516 0.963905 1.02821
4938.58 1.05879 1.09209 0.970592 1.02834
4938.98 1.04901 1.09143 0.977355 1.02848
4939.38 1.05998 1.09365 0.972006 1.02862
4939.79 1.08583 1.09892 0.961698 1.02875
4940.19 1.10981 1.10708 0.952931 1.02889
4940.6 1.12324 1.11759 0.945777 1.02903
4941.0 1.12613 1.12975 0.939393 1.02918
4941.41 1.1238 1.14275 0.935119 1.02932
4941.81 1.13111 1.15591 0.93059 1.02946
4942.21 1.1576 1.16864 0.915176 1.02961
4942.62 1.18921 1.18043 0.900141 1.02976
4943.02 1.20851 1.19081 0.892428 1.02991
4943.43 1.21378 1.19935 0.886551 1.03006
4943.83 1.21039 1.20571 0.883374 1.03021
4944.24 1.20412 1.2098 0.882172 1.03036
4944.64 1.20092 1.21182 0.882009 1.03052
4945.05 1.20302 1.2123 0.883785 1.03068
4945.45 1.20702 1.21192 0.885039 1.03084
4945.85 1.21016 1.21139 0.882587 1.031
4946.26 1.21282 1.21126 0.880146 1.03116
4946.66 1.21569 1.21184 0.878431 1.03132
4947.07 1.21843 1.21319 0.876801 1.03149
4947.47 1.22033 1.21524 0.87602 1.03165
4947.88 1.22076 1.21783 0.875645 1.03182
4948.28 1.21919 1.22078 0.876376 1.03199
4948.69 1.21684 1.2239 0.878448 1.03216
4949.09 1.21694 1.22696 0.879361 1.03234
4949.5 1.22106 1.22974 0.876391 1.03251
4949.9 1.22724 1.23198 0.873443 1.03269
4950.31 1.23331 1.23344 0.871537 1.03287
4950.71 1.23817 1.23398 0.869637 1.03305
4951.12 1.24118 1.23351 0.869534 1.03324
4951.52 1.2436 1.23206 0.86992 1.03342
4951.93 1.2474 1.22967 0.868221 1.03361
4952.33 1.25108 1.2264 0.864925 1.0338
4952.74 1.25027 1.22215 0.864497 1.03399
4953.14 1.24269 1.21672 0.869565 1.03418
4953.55 1.22932 1.20981 0.875174 1.03437
4953.95 1.21176 1.20109 0.884444 1.03456
4954.36 1.19255 1.19034 0.893864 1.03476
4954.77 1.17422 1.17749 0.903443 1.03496
4955.17 1.15806 1.16271 0.913179 1.03516
4955.58 1.14483 1.14642 0.921394 1.03536
4955.98 1.13332 1.12933 0.928927 1.03556
4956.39 1.12116 1.11251 0.936249 1.03576
4956.79 1.1075 1.09732 0.943299 1.03597
4957.2 1.09316 1.08523 0.950108 1.03617
4957.6 1.07991 1.07753 0.955977 1.03638
4958.01 1.07122 1.07499 0.961751 1.03659
4958.42 1.06985 1.07764 0.961357 1.0368
4958.82 1.07516 1.08483 0.960963 1.03701
4959.23 1.0857 1.09548 0.954295 1.03722
4959.63 1.10008 1.10839 0.946203 1.03743
4960.04 1.1169 1.12248 0.937226 1.03765
4960.44 1.13466 1.13687 0.927693 1.03786
4960.85 1.15178 1.15084 0.918882 1.03808
4961.26 1.16663 1.16371 0.911167 1.03829
4961.66 1.17755 1.17484 0.904188 1.03851
4962.07 1.18392 1.18365 0.900811 1.03873
4962.47 1.1878 1.1897 0.897453 1.03895
4962.88 1.19124 1.19275 0.895131 1.03917
4963.29 1.19424 1.19281 0.892888 1.03939
4963.69 1.19609 1.19016 0.891798 1.03961
4964.1 1.19533 1.18526 0.891158 1.03984
4964.5 1.19025 1.17881 0.892412 1.04006
4964.91 1.18284 1.17155 0.895551 1.04029
4965.32 1.1788 1.16422 0.897963 1.04051
4965.72 1.17997 1.15741 0.89854 1.04074
4966.13 1.18121 1.15149 0.899399 1.04096
4966.54 1.17765 1.1466 0.903879 1.04119
4966.94 1.16754 1.14277 0.908394 1.04142
4967.35 1.15079 1.14 0.918319 1.04165
4967.75 1.13373 1.13836 0.929321 1.04188
4968.16 1.12449 1.13798 0.934984 1.04211
4968.57 1.12347 1.13894 0.937617 1.04234
4968.97 1.12581 1.14124 0.938843 1.04257
4969.38 1.12886 1.14475 0.938186 1.0428
4969.79 1.1328 1.14927 0.936919 1.04303
4970.19 1.13828 1.15453 0.933441 1.04326
4970.6 1.14657 1.16032 0.929976 1.04349
4971.01 1.15802 1.16642 0.923675 1.04372
4971.41 1.16907 1.17264 0.917437 1.04396
4971.82 1.17581 1.17877 0.912199 1.04419
4972.23 1.1792 1.18467 0.907253 1.04442
4972.63 1.18235 1.19023 0.903032 1.04465
4973.04 1.18696 1.19536 0.899339 1.04489
4973.45 1.19351 1.19993 0.896158 1.04512
4973.86 1.20098 1.20373 0.89384 1.04535
4974.26 1.20614 1.20644 0.891937 1.04559
4974.67 1.20705 1.20777 0.892286 1.04582
4975.08 1.20535 1.20753 0.892634 1.04605
4975.48 1.20293 1.20569 0.893715 1.04629
4975.89 1.20019 1.20238 0.894843 1.04652
4976.3 1.19703 1.1978 0.896439 1.04675
4976.7 1.19304 1.19214 0.898213 1.04699
4977.11 1.18762 1.18551 0.900344 1.04722
4977.52 1.18041 1.17805 0.902808 1.04745
4977.93 1.17129 1.16991 0.905881 1.04768
4978.33 1.1602 1.16128 0.910303 1.04792
4978.74 1.14711 1.15232 0.914916 1.04815
4979.15 1.13244 1.14312 0.920974 1.04838
4979.56 1.11776 1.13362 0.927094 1.04861
4979.96 1.10501 1.12365 0.933796 1.04884
4980.37 1.09684 1.11306 0.940636 1.04907
4980.78 1.09551 1.10183 0.943425 1.0493
4981.19 1.09625 1.09018 0.944314 1.04953
4981.59 1.09019 1.0786 0.948535 1.04976
4982.0 1.07531 1.06777 0.956517 1.04999
4982.41 1.05702 1.05843 0.964311 1.05022
4982.82 1.04103 1.05129 0.971395 1.05044
4983.22 1.03305 1.04682 0.978073 1.05067
4983.63 1.03671 1.04528 0.977079 1.0509
4984.04 1.04867 1.0467 0.976087 1.05112
4984.45 1.06422 1.05096 0.97063 1.05135
4984.86 1.07917 1.05785 0.964451 1.05157
4985.26 1.08979 1.0671 0.960231 1.0518
4985.67 1.09552 1.07832 0.95708 1.05202
4986.08 1.098 1.09093 0.954376 1.05224
4986.49 1.1006 1.10416 0.952232 1.05246
4986.89 1.10859 1.11709 0.947565 1.05268
4987.3 1.12396 1.12887 0.934711 1.0529
4987.71 1.14175 1.13884 0.922281 1.05312
4988.12 1.15705 1.14668 0.915979 1.05333
4988.53 1.16838 1.15241 0.909741 1.05355
4988.94 1.17519 1.15625 0.906452 1.05377
4989.34 1.17768 1.15849 0.903807 1.05398
4989.75 1.17638 1.15946 0.902869 1.05419
4990.16 1.17177 1.15949 0.902988 1.05441
4990.57 1.16433 1.15893 0.904742 1.05462
4990.98 1.15573 1.15821 0.908847 1.05483
4991.39 1.14916 1.15763 0.912305 1.05503
4991.79 1.14677 1.15738 0.913214 1.05524
4992.2 1.14827 1.1574 0.914115 1.05545
4992.61 1.15265 1.15758 0.91288 1.05565
4993.02 1.15736 1.15785 0.911648 1.05586
4993.43 1.15987 1.15828 0.912546 1.05606
4993.84 1.16047 1.1591 0.913974 1.05626
4994.24 1.16067 1.16048 0.914543 1.05646
4994.65 1.1612 1.16241 0.914533 1.05665
4995.06 1.16214 1.16461 0.914495 1.05685
4995.47 1.16337 1.16662 0.914412 1.05705
4995.88 1.16448 1.168 0.914447 1.05724
4996.29 1.16486 1.16844 0.914975 1.05743
4996.7 1.16341 1.16781 0.915504 1.05762
4997.11 1.15933 1.16601 0.918653 1.05781
4997.51 1.15342 1.16296 0.921839 1.058
4997.92 1.14678 1.15851 0.924083 1.05818
4998.33 1.13977 1.15258 0.926081 1.05836
4998.74 1.13238 1.14532 0.927813 1.05855
4999.15 1.12431 1.13713 0.929358 1.05873
4999.56 1.11506 1.12864 0.931793 1.0589
4999.97 1.10539 1.12052 0.935631 1.05908
5000.38 1.09771 1.11328 0.939428 1.05926
5000.79 1.09331 1.10719 0.942971 1.05943
5001.2 1.09065 1.10223 0.946534 1.0596
5001.61 1.08796 1.09826 0.949512 1.05977
5002.01 1.08433 1.095 0.952497 1.05993
5002.42 1.0794 1.09218 0.954829 1.0601
5002.83 1.07527 1.08948 0.956991 1.06026
5003.24 1.07502 1.08658 0.95598 1.06042
5003.65 1.07897 1.08318 0.952789 1.06058
5004.06 1.08534 1.07913 0.949592 1.06074
5004.47 1.09215 1.07443 0.946376 1.06089
5004.88 1.09732 1.06941 0.943495 1.06105
5005.29 1.09898 1.06461 0.941937 1.0612
5005.7 1.09583 1.06081 0.940383 1.06135
5006.11 1.08802 1.05877 0.946031 1.0615
5006.52 1.0813 1.05905 0.951748 1.06164
5006.93 1.08188 1.06189 0.951303 1.06179
5007.34 1.08908 1.06711 0.949318 1.06193
5007.75 1.09917 1.07412 0.946328 1.06207
5008.16 1.10899 1.08213 0.942691 1.06221
5008.57 1.11588 1.09026 0.939386 1.06235
5008.98 1.12021 1.0977 0.93655 1.06248
5009.39 1.12611 1.10376 0.934097 1.06262
5009.8 1.13438 1.10782 0.933039 1.06275
5010.21 1.13807 1.10942 0.932077 1.06288
5010.62 1.13123 1.10821 0.937333 1.06301
5011.03 1.11549 1.1041 0.942635 1.06314
5011.44 1.09481 1.09737 0.951159 1.06326
5011.85 1.07638 1.08865 0.960511 1.06339
5012.26 1.06797 1.07885 0.967546 1.06351
5012.67 1.0667 1.06894 0.973173 1.06364
5013.08 1.06217 1.0598 0.97868 1.06376
5013.49 1.05083 1.05207 0.984008 1.06388
5013.9 1.03753 1.04619 0.988627 1.06399
5014.31 1.02703 1.04241 0.990827 1.06411
5014.72 1.0229 1.04078 0.992814 1.06423
5015.13 1.02685 1.04117 0.989805 1.06434
5015.54 1.03451 1.04323 0.986809 1.06445
5015.95 1.04078 1.0465 0.98422 1.06456
5016.36 1.04454 1.0505 0.981711 1.06467
5016.77 1.04626 1.0549 0.979303 1.06478
5017.18 1.04678 1.05952 0.976953 1.06489
5017.59 1.04721 1.06433 0.97444 1.065
5018.0 1.04876 1.0693 0.971739 1.0651
5018.41 1.05274 1.07432 0.968407 1.06521
5018.82 1.05988 1.07914 0.963377 1.06531
5019.23 1.06975 1.08345 0.958195 1.06541
5019.64 1.08124 1.08697 0.950871 1.06551
5020.05 1.09149 1.08959 0.94363 1.06561
5020.46 1.09756 1.09137 0.939481 1.06571
5020.88 1.09813 1.09259 0.935736 1.06581
5021.29 1.09281 1.09366 0.937224 1.0659
5021.7 1.08514 1.09504 0.940999 1.066
5022.11 1.08082 1.09709 0.941948 1.06609
5022.52 1.08189 1.10001 0.940127 1.06619
5022.93 1.08671 1.10369 0.93806 1.06628
5023.34 1.09371 1.10783 0.93546 1.06637
5023.75 1.1016 1.11197 0.93283 1.06646
5024.16 1.10927 1.11572 0.92994 1.06655
5024.57 1.116 1.11885 0.927063 1.06664
5024.99 1.12122 1.1213 0.924778 1.06673
5025.4 1.12482 1.12315 0.922541 1.06682
5025.81 1.12689 1.12444 0.921626 1.06691
5026.22 1.12771 1.12524 0.921156 1.06699
5026.63 1.12765 1.1256 0.920807 1.06708
5027.04 1.12718 1.12577 0.920553 1.06716
5027.45 1.12677 1.12611 0.919981 1.06725
5027.86 1.12676 1.12706 0.91887 1.06733
5028.28 1.12724 1.129 0.917832 1.06742
5028.69 1.12869 1.13212 0.917105 1.0675
5029.1 1.13257 1.13643 0.91638 1.06758
5029.51 1.14003 1.14183 0.912825 1.06766
5029.92 1.15042 1.14825 0.909277 1.06774
5030.33 1.16242 1.15559 0.903789 1.06782
5030.74 1.1734 1.1637 0.897891 1.0679
5031.16 1.1804 1.17223 0.893239 1.06798
5031.57 1.18396 1.18061 0.889341 1.06806
5031.98 1.18715 1.1881 0.88628 1.06814
5032.39 1.19139 1.19389 0.884283 1.06821
5032.8 1.19614 1.19736 0.882783 1.06829
5033.21 1.20044 1.19809 0.882763 1.06837
5033.63 1.20276 1.19597 0.882925 1.06845
5034.04 1.20129 1.19116 0.885752 1.06852
5034.45 1.19342 1.18411 0.888593 1.0686
5034.86 1.17761 1.17545 0.893037 1.06867
5035.27 1.15941 1.16593 0.897735 1.06875
5035.69 1.14646 1.15626 0.902565 1.06882
5036.1 1.14128 1.14689 0.907476 1.0689
5036.51 1.14315 1.13789 0.912459 1.06897
5036.92 1.14632 1.12897 0.917515 1.06905
5037.33 1.14035 1.11964 0.92342 1.06912
5037.75 1.12208 1.1095 0.93107 1.0692
5038.16 1.1002 1.0984 0.938867 1.06927
5038.57 1.08176 1.08658 0.947082 1.06935
5038.98 1.06679 1.07452 0.955406 1.06942
5039.4 1.05392 1.06281 0.963836 1.06949
5039.81 1.04064 1.05208 0.972379 1.06957
5040.22 1.02492 1.04303 0.980552 1.06964
5040.63 1.01086 1.03642 0.988687 1.06972
5041.04 1.00523 1.03313 0.994072 1.06979
5041.46 1.01015 1.03391 0.997541 1.06986
5041.87 1.02412 1.03918 0.995724 1.06994
5042.28 1.045 1.04887 0.986432 1.07001
5042.7 1.06994 1.06241 0.973799 1.07009
5043.11 1.09596 1.07889 0.950165 1.07016
5043.52 1.11992 1.09728 0.928074 1.07023
5043.93 1.13947 1.11657 0.919879 1.07031
5044.35 1.15515 1.13579 0.911792 1.07038
5044.76 1.16811 1.15396 0.903369 1.07046
5045.17 1.1793 1.17006 0.894996 1.07053
5045.58 1.1896 1.18308 0.887479 1.07061
5046.0 1.19943 1.1922 0.880388 1.07069
5046.41 1.20885 1.19695 0.876218 1.07076
5046.82 1.2153 1.19728 0.874821 1.07084
5047.24 1.21375 1.1936 0.876154 1.07092
5047.65 1.2027 1.18669 0.883125 1.07099
5048.06 1.18646 1.17754 0.890484 1.07107
5048.47 1.16944 1.16724 0.899697 1.07115
5048.89 1.155 1.15675 0.909055 1.07123
5049.3 1.14526 1.1469 0.918053 1.07131
5049.71 1.13745 1.13828 0.92717 1.07139
5050.13 1.12806 1.1313 0.935255 1.07147
5050.54 1.11804 1.12622 0.943136 1.07155
5050.95 1.11024 1.12325 0.949105 1.07163
5051.37 1.10617 1.1225 0.953854 1.07171
5051.78 1.10626 1.12404 0.957145 1.07179
5052.19 1.11019 1.12776 0.958513 1.07187
5052.61 1.11669 1.13342 0.958655 1.07196
5053.02 1.12447 1.14061 0.955279 1.07204
5053.43 1.13222 1.14881 0.951788 1.07213
5053.85 1.13915 1.15753 0.946821 1.07221
5054.26 1.14598 1.16633 0.941893 1.0723
5054.67 1.15369 1.17483 0.936597 1.07238
5055.09 1.16306 1.18277 0.931304 1.07247
5055.5 1.17463 1.18998 0.92633 1.07256
5055.91 1.18725 1.19636 0.921496 1.07265
5056.33 1.19893 1.2019 0.917585 1.07274
5056.74 1.20802 1.20666 0.91441 1.07283
5057.16 1.21325 1.21073 0.911052 1.07292
5057.57 1.21454 1.21423 0.907387 1.07301
5057.98 1.21346 1.21729 0.903579 1.0731
5058.4 1.21254 1.22005 0.899153 1.0732
5058.81 1.21627 1.22269 0.894742 1.07329
5059.23 1.22715 1.2253 0.889777 1.07339
5059.64 1.2395 1.22788 0.884853 1.07348
5060.05 1.24672 1.23023 0.88101 1.07358
5060.47 1.24801 1.23196 0.877369 1.07368
5060.88 1.24498 1.23258 0.874943 1.07377
5061.3 1.24051 1.23162 0.873087 1.07387
5061.71 1.23808 1.2288 0.873061 1.07397
5062.12 1.23658 1.22398 0.874821 1.07407
5062.54 1.23049 1.21722 0.878641 1.07417
5062.95 1.21798 1.20867 0.88665 1.07427
5063.37 1.20329 1.19864 0.894456 1.07437
5063.78 1.19037 1.18757 0.900705 1.07447
5064.2 1.18103 1.17613 0.907019 1.07458
5064.61 1.17549 1.1651 0.908297 1.07468
5065.02 1.16851 1.15524 0.909515 1.07478
5065.44 1.15473 1.14707 0.919686 1.07489
5065.85 1.13778 1.14081 0.932099 1.07499
5066.27 1.1248 1.13634 0.941076 1.0751
5066.68 1.11855 1.1334 0.948129 1.0752
5067.1 1.11871 1.1317 0.953061 1.07531
5067.51 1.12281 1.1311 0.955571 1.07542
5067.93 1.12618 1.13154 0.957957 1.07552
5068.34 1.12651 1.13297 0.960037 1.07563
5068.75 1.12554 1.13529 0.96135 1.07574
5069.17 1.12517 1.1382 0.957598 1.07585
5069.58 1.12655 1.1413 0.953867 1.07596
5070.0 1.13056 1.14411 0.947175 1.07607
5070.41 1.13729 1.1462 0.940438 1.07618
5070.83 1.14635 1.14738 0.932074 1.07629
5071.24 1.15508 1.14769 0.923383 1.0764
5071.66 1.16005 1.14746 0.915995 1.07651
5072.07 1.1612 1.14712 0.909403 1.07663
5072.49 1.16088 1.14708 0.903859 1.07674
5072.9 1.16065 1.14753 0.899531 1.07685
5073.32 1.16114 1.14843 0.895927 1.07697
5073.73 1.16203 1.14953 0.894064 1.07708
5074.15 1.16154 1.15054 0.892827 1.07719
5074.56 1.15867 1.15123 0.896236 1.07731
5074.98 1.15516 1.1515 0.899666 1.07742
5075.39 1.15284 1.1513 0.903431 1.07754
5075.81 1.15175 1.15056 0.907237 1.07766
5076.23 1.15133 1.14908 0.911437 1.07777
5076.64 1.1505 1.14653 0.91577 1.07789
5077.06 1.14793 1.14247 0.920761 1.07801
5077.47 1.14282 1.13652 0.926187 1.07812
5077.89 1.13473 1.12856 0.931872 1.07824
5078.3 1.12417 1.11885 0.937869 1.07836
5078.72 1.11263 1.10807 0.94344 1.07848
5079.13 1.10151 1.09719 0.947826 1.0786
5079.55 1.09185 1.08725 0.951885 1.07871
5079.96 1.08422 1.0791 0.953274 1.07883
5080.38 1.07787 1.07322 0.954666 1.07895
5080.8 1.07209 1.06973 0.951306 1.07907
5081.21 1.06741 1.06846 0.947727 1.07919
5081.63 1.06467 1.06916 0.942409 1.07931
5082.04 1.0645 1.07161 0.936664 1.07944
5082.46 1.0674 1.0757 0.929643 1.07956
5082.87 1.07358 1.08135 0.921904 1.07968
5083.29 1.08303 1.08844 0.912795 1.0798
5083.71 1.09532 1.09672 0.902118 1.07992
5084.12 1.10947 1.10578 0.892558 1.08004
5084.54 1.12412 1.11513 0.885353 1.08016
5084.95 1.13727 1.12428 0.878672 1.08029
5085.37 1.14709 1.13283 0.874937 1.08041
5085.79 1.15244 1.14055 0.871226 1.08053
5086.2 1.15313 1.14736 0.872586 1.08066
5086.62 1.15262 1.15329 0.874118 1.08078
5087.04 1.15475 1.15845 0.876589 1.0809
5087.45 1.15901 1.16294 0.879299 1.08103
5087.87 1.16302 1.16692 0.882118 1.08115
5088.28 1.16553 1.17052 0.885005 1.08127
5088.7 1.16613 1.17386 0.887866 1.0814
5089.12 1.1663 1.17705 0.890698 1.08152
5089.53 1.16945 1.18016 0.893355 1.08164
5089.95 1.17693 1.18327 0.895618 1.08177
5090.37 1.18663 1.18643 0.897405 1.08189
5090.78 1.19647 1.18971 0.896612 1.08202
5091.2 1.20539 1.19315 0.89582 1.08214
5091.62 1.21262 1.19668 0.893089 1.08227
5092.03 1.21804 1.20014 0.890366 1.08239
5092.45 1.22156 1.20324 0.888961 1.08252
5092.87 1.22232 1.20558 0.887814 1.08264
5093.28 1.21932 1.20679 0.88822 1.08277
5093.7 1.21343 1.20652 0.889369 1.08289
5094.12 1.20665 1.20455 0.891258 1.08302
5094.53 1.20058 1.20081 0.893843 1.08314
5094.95 1.19638 1.19531 0.89691 1.08327
5095.37 1.19328 1.18816 0.90084 1.08339
5095.78 1.18776 1.17952 0.905611 1.08352
5096.2 1.17735 1.16964 0.913729 1.08364
5096.62 1.16242 1.15886 0.921987 1.08377
5097.03 1.1441 1.14764 0.931038 1.08389
5097.45 1.12499 1.13654 0.940225 1.08402
5097.87 1.10823 1.12624 0.949245 1.08414
5098.29 1.09851 1.11748 0.958355 1.08427
5098.7 1.10021 1.11098 0.954611 1.08439
5099.12 1.11002 1.10728 0.946057 1.08452
5099.54 1.12056 1.10662 0.940682 1.08464
5099.95 1.12822 1.10881 0.937679 1.08477
5100.37 1.13268 1.11332 0.935998 1.08489
5100.79 1.13516 1.11941 0.936197 1.08501
5101.21 1.13876 1.12629 0.935943 1.08514
5101.62 1.14422 1.13325 0.93436 1.08526
5102.04 1.14747 1.13974 0.932674 1.08539
5102.46 1.14575 1.14535 0.930012 1.08551
5102.88 1.14185 1.14977 0.927361 1.08564
5103.29 1.13935 1.15279 0.925522 1.08576
5103.71 1.14069 1.15432 0.923737 1.08588
5104.13 1.14708 1.15437 0.923977 1.08601
5104.55 1.15294 1.15307 0.924766 1.08613
5104.96 1.15027 1.15057 0.924735 1.08625
5105.38 1.14017 1.14705 0.924224 1.08638
5105.8 1.13016 1.1427 0.924101 1.0865
5106.22 1.12451 1.13775 0.924406 1.08662
5106.63 1.12383 1.13253 0.92513 1.08674
5107.05 1.12489 1.12746 0.926741 1.08687
5107.47 1.11853 1.12295 0.929177 1.08699
5107.89 1.1014 1.11931 0.935709 1.08711
5108.31 1.08555 1.11664 0.942241 1.08723
5108.72 1.08219 1.11491 0.94419 1.08735
5109.14 1.09046 1.11407 0.946146 1.08748
5109.56 1.1059 1.11417 0.946041 1.0876
5109.98 1.11954 1.11545 0.945606 1.08772
5110.4 1.12206 1.11818 0.947318 1.08784
5110.81 1.11753 1.12246 0.949922 1.08796
5111.23 1.11725 1.12811 0.95123 1.08808
5111.65 1.12431 1.13471 0.951501 1.0882
5112.07 1.13459 1.14176 0.950562 1.08832
5112.49 1.14405 1.14887 0.94785 1.08843
5112.91 1.14903 1.15592 0.943971 1.08855
5113.32 1.1494 1.16291 0.936668 1.08867
5113.74 1.15187 1.16991 0.929713 1.08879
5114.16 1.16118 1.17685 0.925153 1.08891
5114.58 1.174 1.18354 0.920627 1.08902
5115.0 1.18598 1.18979 0.915218 1.08914
5115.42 1.19523 1.19547 0.909809 1.08926
5115.83 1.20095 1.20055 0.903369 1.08937
5116.25 1.20567 1.20506 0.89673 1.08949
5116.67 1.21301 1.20898 0.893349 1.0896
5117.09 1.22215 1.21218 0.891702 1.08972
5117.51 1.22937 1.21445 0.891266 1.08983
5117.93 1.23262 1.21554 0.89204 1.08995
5118.35 1.23162 1.21523 0.893301 1.09006
5118.77 1.22689 1.21343 0.895467 1.09017
5119.18 1.21995 1.21008 0.897373 1.09029
5119.6 1.21209 1.20519 0.898222 1.0904
5120.02 1.20384 1.19879 0.899015 1.09051
5120.44 1.19554 1.19098 0.8988 1.09062
5120.86 1.18721 1.18193 0.898585 1.09073
5121.28 1.17878 1.17182 0.898699 1.09084
5121.7 1.17005 1.16091 0.898849 1.09095
5122.12 1.16088 1.14948 0.900336 1.09106
5122.54 1.15197 1.13792 0.902258 1.09117
5122.96 1.14428 1.12671 0.907067 1.09128
5123.37 1.13622 1.11643 0.913784 1.09138
5123.79 1.12438 1.1076 0.922418 1.09149
5124.21 1.10769 1.10053 0.933356 1.0916
5124.63 1.08781 1.09526 0.945875 1.0917
5125.05 1.06967 1.09157 0.961724 1.09181
5125.47 1.06337 1.08909 0.975103 1.09191
5125.89 1.0728 1.0875 0.974555 1.09201
5126.31 1.08565 1.08661 0.974079 1.09212
5126.73 1.09012 1.08639 0.976679 1.09222
5127.15 1.08528 1.08687 0.979289 1.09232
5127.57 1.07384 1.08809 0.983042 1.09242
5127.99 1.06479 1.09003 0.986978 1.09252
5128.41 1.06792 1.09263 0.985394 1.09262
5128.83 1.08012 1.09585 0.981805 1.09272
5129.25 1.09164 1.09967 0.978002 1.09282
5129.67 1.09895 1.10412 0.974059 1.09292
5130.09 1.10351 1.10918 0.969994 1.09302
5130.51 1.10754 1.11479 0.965773 1.09311
5130.93 1.11394 1.12077 0.961448 1.09321
5131.35 1.12311 1.12692 0.956847 1.0933
5131.77 1.13108 1.13302 0.952146 1.0934
5132.19 1.13529 1.13893 0.946761 1.09349
5132.6 1.13778 1.14458 0.941439 1.09358
5133.02 1.141 1.14995 0.93752 1.09367
5133.44 1.14618 1.15497 0.933626 1.09376
5133.86 1.15381 1.15948 0.931824 1.09385
5134.28 1.16147 1.16314 0.93034 1.09394
5134.71 1.16596 1.16548 0.929984 1.09403
5135.13 1.1666 1.16603 0.930051 1.09412
5135.55 1.16413 1.16452 0.930456 1.09421
5135.97 1.15925 1.16104 0.931101 1.09429
5136.39 1.15266 1.15599 0.931877 1.09438
5136.81 1.14505 1.14995 0.932819 1.09446
5137.23 1.13713 1.14347 0.933187 1.09455
5137.65 1.12956 1.13688 0.932218 1.09463
5138.07 1.12297 1.13038 0.931412 1.09471
5138.49 1.11781 1.12415 0.931459 1.09479
5138.91 1.11412 1.11851 0.931512 1.09487
5139.33 1.1118 1.11385 0.931827 1.09495
5139.75 1.11057 1.11046 0.932143 1.09503
5140.17 1.11029 1.10834 0.931492 1.0951
5140.59 1.11175 1.10715 0.930708 1.09518
5141.01 1.11584 1.10638 0.931716 1.09525
5141.43 1.12138 1.1057 0.933364 1.09533
5141.85 1.12613 1.10511 0.936124 1.0954
5142.27 1.12834 1.10491 0.939644 1.09547
5142.69 1.12672 1.10543 0.944234 1.09554
5143.11 1.12178 1.10672 0.950105 1.09561
5143.53 1.11601 1.10845 0.956513 1.09568
5143.96 1.11118 1.11001 0.964015 1.09575
5144.38 1.10774 1.11085 0.971112 1.09582
5144.8 1.10595 1.11075 0.976046 1.09588
5145.22 1.10592 1.10988 0.980863 1.09595
5145.64 1.10773 1.10869 0.982319 1.09601
5146.06 1.11127 1.10764 0.983778 1.09608
5146.48 1.11624 1.10702 0.984522 1.09614
5146.9 1.12133 1.10689 0.985191 1.0962
5147.32 1.12498 1.10712 0.985419 1.09626
5147.75 1.12625 1.10758 0.985514 1.09632
5148.17 1.12454 1.10815 0.985713 1.09637
5148.59 1.11972 1.10872 0.985972 1.09643
5149.01 1.11207 1.10917 0.988082 1.09648
5149.43 1.10341 1.10935 0.992095 1.09654
5149.85 1.09703 1.10911 0.995768 1.09659
5150.27 1.09437 1.1084 0.998806 1.09664
5150.69 1.0941 1.10726 1.00152 1.09669
5151.12 1.09452 1.10584 1.00305 1.09674
5151.54 1.09373 1.10435 1.0043 1.09679
5151.96 1.0911 1.10299 1.00267 1.09684
5152.38 1.09027 1.10196 1.00104 1.09688
5152.8 1.09454 1.1015 0.997005 1.09693
5153.22 1.10217 1.10188 0.992876 1.09697
5153.64 1.11008 1.10341 0.988199 1.09701
5154.07 1.11635 1.10634 0.983428 1.09705
5154.49 1.11979 1.11081 0.978541 1.09709
5154.91 1.12265 1.11678 0.973621 1.09713
5155.33 1.12906 1.12405 0.96681 1.09717
5155.75 1.13922 1.1323 0.95851 1.0972
5156.18 1.14989 1.1412 0.950491 1.09724
5156.6 1.1589 1.15035 0.942816 1.09727
5157.02 1.16558 1.15932 0.935433 1.0973
5157.44 1.17031 1.1676 0.92864 1.09733
5157.86 1.17521 1.17472 0.921979 1.09736
5158.29 1.18181 1.18027 0.915714 1.09739
5158.71 1.18959 1.18405 0.909571 1.09741
5159.13 1.19759 1.18601 0.906768 1.09744
5159.55 1.20437 1.18618 0.903977 1.09746
5159.97 1.20834 1.18462 0.903972 1.09748
5160.4 1.20789 1.1813 0.904328 1.0975
5160.82 1.20175 1.17624 0.908458 1.09752
5161.24 1.19179 1.16951 0.913868 1.09754
5161.66 1.18126 1.16132 0.921696 1.09756
5162.08 1.17122 1.15191 0.93109 1.09757
5162.51 1.16105 1.1414 0.941344 1.09758
5162.93 1.14971 1.12955 0.952523 1.0976
5163.35 1.13571 1.11582 0.963798 1.09761
5163.77 1.11757 1.0995 0.975088 1.09762
5164.2 1.09379 1.08005 0.987734 1.09762
5164.62 1.06444 1.0574 1.00459 1.09763
5165.04 1.03283 1.03213 1.02209 1.09764
5165.46 1.00227 1.00535 1.04203 1.09764
5165.89 0.974976 0.978554 1.06256 1.09764
5166.31 0.95216 0.953338 1.08546 1.09764
5166.73 0.931452 0.931136 1.10918 1.09764
5167.16 0.910286 0.913034 1.12466 1.09764
5167.58 0.891139 0.899614 1.13876 1.09764
5168.0 0.878191 0.89088 1.1473 1.09764
5168.42 0.872578 0.886263 1.15359 1.09763
5168.85 0.873528 0.884722 1.15548 1.09763
5169.27 0.877613 0.884928 1.15422 1.09762
5169.69 0.879393 0.885504 1.15407 1.09761
5170.12 0.876576 0.885298 1.15525 1.0976
5170.54 0.870466 0.883633 1.15682 1.09759
5170.96 0.862785 0.880489 1.1592 1.09758
5171.39 0.855606 0.876545 1.16139 1.09757
5171.81 0.851078 0.87307 1.16273 1.09756
5172.23 0.851449 0.871636 1.16332 1.09755
5172.65 0.85825 0.873734 1.15449 1.09753
5173.08 0.870686 0.880395 1.14576 1.09752
5173.5 0.887425 0.891955 1.13286 1.0975
5173.92 0.906816 0.908013 1.11995 1.09748
5174.35 0.927184 0.92762 1.10474 1.09747
5174.77 0.947309 0.949567 1.0893 1.09745
5175.19 0.966492 0.972653 1.07176 1.09743
5175.62 0.987498 0.995848 1.05361 1.09741
5176.04 1.01481 1.0183 1.03453 1.09739
5176.46 1.04696 1.03928 1.01496 1.09737
5176.89 1.07756 1.05808 0.998614 1.09735
5177.31 1.10122 1.07399 0.985935 1.09733
5177.74 1.11399 1.08636 0.977029 1.09731
5178.16 1.115 1.09465 0.975706 1.09728
5178.58 1.1083 1.09847 0.975569 1.09726
5179.01 1.09782 1.0976 0.980315 1.09724
5179.43 1.08624 1.09199 0.98509 1.09721
5179.85 1.07539 1.08174 0.989829 1.09719
5180.28 1.06484 1.0671 0.994602 1.09716
5180.7 1.05314 1.04852 0.999046 1.09714
5181.13 1.03599 1.02672 1.0035 1.09711
5181.55 1.0093 1.00271 1.02392 1.09709
5181.97 0.975848 0.977881 1.04851 1.09706
5182.4 0.941201 0.953994 1.07044 1.09704
5182.82 0.910038 0.933035 1.0915 1.09701
5183.25 0.88646 0.916981 1.10923 1.09698
5183.67 0.873788 0.907454 1.12446 1.09696
5184.09 0.874557 0.905407 1.13024 1.09693
5184.52 0.886706 0.910955 1.12458 1.0969
5184.94 0.903116 0.92344 1.11626 1.09688
5185.37 0.919992 0.941652 1.10278 1.09685
5185.79 0.939082 0.964117 1.08839 1.09682
5186.22 0.962919 0.989287 1.07015 1.0968
5186.64 0.994708 1.01563 1.05186 1.09677
5187.06 1.03443 1.04169 1.02937 1.09674
5187.49 1.072 1.0661 1.0076 1.09671
5187.91 1.09781 1.08774 0.993502 1.09669
5188.34 1.11245 1.10581 0.979897 1.09666
5188.76 1.11936 1.11981 0.971023 1.09664
5189.19 1.12236 1.12949 0.963034 1.09661
5189.61 1.12492 1.13475 0.959988 1.09658
5190.04 1.12618 1.13563 0.95873 1.09656
5190.46 1.12308 1.1325 0.960829 1.09653
5190.88 1.11579 1.12614 0.965073 1.09651
5191.31 1.10688 1.11783 0.969359 1.09648
5191.73 1.09837 1.10906 0.973691 1.09646
5192.16 1.09171 1.10124 0.977598 1.09643
5192.58 1.08745 1.0953 0.980769 1.09641
5193.01 1.08496 1.09152 0.983023 1.09639
5193.43 1.08364 1.0897 0.982574 1.09637
5193.86 1.0832 1.08941 0.98185 1.09634
5194.28 1.08358 1.09042 0.979419 1.09632
5194.71 1.08534 1.09281 0.976957 1.0963
5195.13 1.0893 1.09689 0.972602 1.09628
5195.56 1.09692 1.10292 0.968275 1.09626
5195.98 1.10919 1.11083 0.961185 1.09624
5196.41 1.12401 1.12012 0.953876 1.09622
5196.83 1.1384 1.13002 0.947584 1.0962
5197.26 1.1509 1.13978 0.941606 1.09619
5197.68 1.16084 1.14891 0.936856 1.09617
5198.11 1.16832 1.15722 0.932717 1.09615
5198.54 1.17399 1.16474 0.931693 1.09614
5198.96 1.17877 1.17148 0.933175 1.09613
5199.39 1.18385 1.17728 0.931816 1.09611
5199.81 1.18958 1.18179 0.926825 1.0961
5200.24 1.19533 1.18455 0.922029 1.09609
5200.66 1.20017 1.18513 0.917593 1.09608
5201.09 1.20275 1.18325 0.915341 1.09607
5201.51 1.20136 1.17888 0.921409 1.09606
5201.94 1.19366 1.17214 0.927656 1.09605
5202.36 1.17847 1.16319 0.935149 1.09604
5202.79 1.15854 1.15221 0.942734 1.09604
5203.22 1.13724 1.13934 0.951127 1.09603
5203.64 1.11743 1.12482 0.95965 1.09603
5204.07 1.10127 1.10911 0.968945 1.09603
5204.49 1.08756 1.09291 0.978483 1.09603
5204.92 1.07404 1.07712 0.986713 1.09603
5205.34 1.0603 1.06257 0.994557 1.09603
5205.77 1.04689 1.04985 1.00225 1.09603
5206.2 1.03455 1.0392 1.0099 1.09603
5206.62 1.02414 1.03054 1.01757 1.09604
5207.05 1.01687 1.02377 1.02526 1.09605
5207.47 1.0142 1.01901 1.02993 1.09605
5207.9 1.01608 1.01668 1.03017 1.09606
5208.33 1.02053 1.01744 1.02953 1.09607
5208.75 1.02623 1.02186 1.02684 1.09609
5209.18 1.03328 1.03015 1.0236 1.0961
5209.61 1.04253 1.04208 1.01796 1.09611
5210.03 1.05625 1.057 1.01174 1.09613
5210.46 1.07563 1.07409 0.997902 1.09615
5210.88 1.09757 1.09245 0.984343 1.09617
5211.31 1.11856 1.11122 0.971831 1.09619
5211.74 1.13677 1.12957 0.959582 1.09621
5212.16 1.15108 1.14661 0.948858 1.09624
5212.59 1.16138 1.16149 0.938531 1.09626
5213.02 1.16801 1.17348 0.933049 1.09629
5213.44 1.17152 1.18213 0.929232 1.09632
5213.87 1.17257 1.18732 0.928548 1.09635
5214.3 1.17223 1.18936 0.929678 1.09638
5214.72 1.1718 1.18889 0.931254 1.09642
5215.15 1.17243 1.18681 0.933243 1.09645
5215.58 1.1751 1.18413 0.932871 1.09649
5216.0 1.17908 1.18184 0.929158 1.09653
5216.43 1.18155 1.1807 0.926485 1.09657
5216.86 1.18168 1.18126 0.926147 1.09662
5217.28 1.18222 1.1837 0.925678 1.09666
5217.71 1.18598 1.18796 0.92467 1.09671
5218.14 1.19506 1.1937 0.9233 1.09676
5218.56 1.20991 1.20045 0.918164 1.09681
5218.99 1.22626 1.20764 0.91307 1.09687
5219.42 1.23957 1.21471 0.911017 1.09692
5219.85 1.24815 1.22118 0.909033 1.09698
5220.27 1.25126 1.22659 0.907868 1.09704
5220.7 1.24919 1.23047 0.906823 1.0971
5221.13 1.24284 1.23235 0.906204 1.09717
5221.55 1.23504 1.23174 0.905715 1.09723
5221.98 1.2292 1.22825 0.909465 1.0973
5222.41 1.2242 1.22162 0.915464 1.09736
5222.84 1.21602 1.21186 0.921872 1.09743
5223.26 1.20271 1.19924 0.928634 1.09751
5223.69 1.18429 1.18425 0.935485 1.09758
5224.12 1.16358 1.16761 0.942431 1.09765
5224.55 1.14646 1.15013 0.949432 1.09773
5224.97 1.13475 1.13271 0.956467 1.09781
5225.4 1.1238 1.1163 0.963942 1.09789
5225.83 1.11034 1.10199 0.972696 1.09797
5226.26 1.09502 1.09093 0.981597 1.09805
5226.68 1.08004 1.08424 0.990802 1.09813
5227.11 1.07058 1.08272 0.999737 1.09822
5227.54 1.07095 1.08653 0.993177 1.0983
5227.97 1.08032 1.09511 0.986681 1.09839
5228.39 1.09659 1.10724 0.97743 1.09848
5228.82 1.11732 1.12141 0.96807 1.09857
5229.25 1.13992 1.13621 0.957475 1.09866
5229.68 1.16162 1.15057 0.946752 1.09875
5230.11 1.17961 1.16369 0.937156 1.09885
5230.53 1.19115 1.17493 0.928079 1.09894
5230.96 1.19387 1.18369 0.924989 1.09904
5231.39 1.18933 1.18951 0.925663 1.09914
5231.82 1.18202 1.1923 0.927569 1.09923
5232.25 1.17682 1.19251 0.93068 1.09933
5232.67 1.17872 1.19116 0.930794 1.09943
5233.1 1.18749 1.18949 0.92651 1.09953
5233.53 1.19616 1.18865 0.923031 1.09964
5233.96 1.20074 1.18936 0.921349 1.09974
5234.39 1.20297 1.19193 0.919616 1.09985
5234.81 1.2052 1.19633 0.917664 1.09995
5235.24 1.20995 1.2024 0.915451 1.10006
5235.67 1.21875 1.20992 0.910858 1.10016
5236.1 1.23018 1.21861 0.906299 1.10027
5236.53 1.24229 1.22807 0.9022 1.10038
5236.96 1.25319 1.23773 0.898129 1.10049
5237.38 1.2612 1.24694 0.895029 1.1006
5237.81 1.26556 1.25509 0.89205 1.10071
5238.24 1.26615 1.26174 0.890428 1.10082
5238.67 1.265 1.26669 0.889149 1.10093
5239.1 1.26492 1.27 0.886621 1.10105
5239.53 1.26668 1.272 0.883565 1.10116
5239.96 1.26977 1.27309 0.881923 1.10127
5240.39 1.27329 1.27368 0.881221 1.10139
5240.81 1.27604 1.27408 0.882192 1.1015
5241.24 1.27605 1.27442 0.884848 1.10162
5241.67 1.27074 1.27474 0.888757 1.10174
5242.1 1.26134 1.27501 0.894566 1.10185
5242.53 1.25405 1.27518 0.898959 1.10197
5242.96 1.25303 1.2752 0.89997 1.10209
5243.39 1.2584 1.27498 0.899991 1.1022
5243.82 1.26794 1.27429 0.896161 1.10232
5244.25 1.27505 1.27279 0.892848 1.10244
5244.67 1.275 1.27004 0.893695 1.10256
5245.1 1.27022 1.26568 0.894567 1.10268
5245.53 1.2639 1.25955 0.898133 1.1028
5245.96 1.25712 1.25185 0.901721 1.10292
5246.39 1.25026 1.24309 0.906945 1.10304
5246.82 1.24273 1.23399 0.912372 1.10316
5247.25 1.23365 1.22524 0.915166 1.10328
5247.68 1.22243 1.21727 0.917363 1.1034
5248.11 1.20874 1.21018 0.921997 1.10352
5248.54 1.19403 1.20389 0.927627 1.10364
5248.97 1.18075 1.19829 0.933835 1.10376
5249.4 1.17173 1.1935 0.940429 1.10388
5249.83 1.16985 1.18984 0.943816 1.104
5250.26 1.17407 1.18771 0.944283 1.10412
5250.69 1.17977 1.18733 0.943562 1.10424
5251.12 1.18446 1.18858 0.941283 1.10436
5251.54 1.18836 1.19099 0.938592 1.10448
5251.97 1.1922 1.19394 0.935089 1.1046
5252.4 1.19719 1.19688 0.931571 1.10471
5252.83 1.20316 1.19951 0.927965 1.10483
5253.26 1.20715 1.20185 0.924615 1.10495
5253.69 1.20735 1.20414 0.922631 1.10507
5254.12 1.20573 1.20681 0.920622 1.10519
5254.55 1.20488 1.21034 0.9181 1.10531
5254.98 1.20728 1.21516 0.915587 1.10542
5255.41 1.21499 1.22153 0.910563 1.10554
5255.84 1.22809 1.22937 0.90548 1.10566
5256.27 1.2456 1.23824 0.900194 1.10577
5256.7 1.26348 1.24743 0.894917 1.10589
5257.13 1.27681 1.25612 0.891165 1.10601
5257.56 1.28269 1.26357 0.887863 1.10612
5257.99 1.27973 1.26921 0.887113 1.10624
5258.42 1.27285 1.27266 0.887541 1.10635
5258.85 1.27035 1.27361 0.889179 1.10646
5259.28 1.27249 1.27175 0.891662 1.10657
5259.71 1.27326 1.2668 0.89546 1.10669
5260.15 1.26825 1.25846 0.900599 1.1068
5260.58 1.25488 1.24655 0.907208 1.10691
5261.01 1.23422 1.23108 0.915984 1.10702
5261.44 1.21173 1.21239 0.925803 1.10713
5261.87 1.19005 1.19115 0.937785 1.10723
5262.3 1.16673 1.16841 0.950324 1.10734
5262.73 1.14018 1.14538 0.96424 1.10745
5263.16 1.11167 1.1233 0.978667 1.10755
5263.59 1.08427 1.10318 0.994725 1.10766
5264.02 1.06503 1.08568 1.01058 1.10776
5264.45 1.05847 1.07108 1.01438 1.10787
5264.88 1.05811 1.05937 1.01819 1.10797
5265.31 1.05621 1.05039 1.02233 1.10807
5265.74 1.0503 1.04387 1.02651 1.10817
5266.17 1.04018 1.03946 1.03093 1.10827
5266.6 1.03032 1.03658 1.03542 1.10837
5267.04 1.02599 1.03443 1.03641 1.10846
5267.47 1.02535 1.03211 1.03641 1.10856
5267.9 1.0235 1.02896 1.0393 1.10865
5268.33 1.01879 1.02498 1.04351 1.10875
5268.76 1.01169 1.02096 1.0492 1.10884
5269.19 1.00432 1.01839 1.05589 1.10893
5269.62 1.00003 1.01888 1.05853 1.10902
5270.05 1.00126 1.02353 1.0573 1.10911
5270.48 1.0095 1.03256 1.05226 1.10919
5270.92 1.0248 1.04521 1.04221 1.10928
5271.35 1.04541 1.06018 1.03067 1.10936
5271.78 1.06889 1.07612 1.01621 1.10945
5272.21 1.09184 1.09213 1.0027 1.10953
5272.64 1.11262 1.10784 0.991338 1.10961
5273.07 1.13307 1.1232 0.979783 1.10968
5273.5 1.15427 1.13818 0.966555 1.10976
5273.94 1.17448 1.15258 0.953736 1.10984
5274.37 1.19148 1.16607 0.942754 1.10991
5274.8 1.20295 1.1785 0.93196 1.10998
5275.23 1.20799 1.19001 0.932418 1.11005
5275.66 1.21157 1.20106 0.932917 1.11012
5276.09 1.21909 1.21218 0.928539 1.11019
5276.52 1.23044 1.2236 0.923722 1.11026
5276.96 1.2436 1.23518 0.917405 1.11033
5277.39 1.25583 1.24638 0.910833 1.11039
5277.82 1.26455 1.25649 0.904713 1.11045
5278.25 1.271 1.26482 0.898785 1.11052
5278.68 1.27816 1.27083 0.896129 1.11058
5279.12 1.28509 1.27413 0.895158 1.11064
5279.55 1.28829 1.27452 0.895848 1.11069
5279.98 1.28508 1.27198 0.897776 1.11075
5280.41 1.27365 1.26674 0.901416 1.11081
5280.84 1.25672 1.25937 0.906867 1.11086
5281.28 1.24151 1.25069 0.912264 1.11092
5281.71 1.23135 1.24172 0.91756 1.11097
5282.14 1.22438 1.23354 0.922696 1.11102
5282.57 1.21872 1.22715 0.927447 1.11107
5283.0 1.21307 1.2234 0.931957 1.11112
5283.44 1.20798 1.22293 0.93563 1.11117
5283.87 1.20756 1.22604 0.93799 1.11121
5284.3 1.2145 1.23267 0.933383 1.11126
5284.73 1.2268 1.24231 0.928623 1.1113
5285.17 1.2419 1.25414 0.921723 1.11135
5285.6 1.25772 1.26711 0.914898 1.11139
5286.03 1.27262 1.28027 0.906517 1.11143
5286.46 1.28633 1.29284 0.898245 1.11147
5286.9 1.29913 1.30438 0.892786 1.11151
5287.33 1.31214 1.3147 0.887622 1.11155
5287.76 1.32653 1.32374 0.881023 1.11159
5288.19 1.34176 1.33149 0.87421 1.11163
5288.63 1.35625 1.33789 0.865395 1.11166
5289.06 1.36509 1.34288 0.856049 1.1117
5289.49 1.3625 1.34644 0.857528 1.11173
5289.93 1.35175 1.34863 0.864225 1.11177
5290.36 1.34156 1.34959 0.867982 1.1118
5290.79 1.33697 1.34955 0.869711 1.11183
5291.22 1.33985 1.34872 0.867866 1.11186
5291.66 1.34773 1.34724 0.86271 1.11189
5292.09 1.35409 1.34514 0.86018 1.11192
5292.52 1.35529 1.34226 0.860976 1.11195
5292.96 1.3513 1.33829 0.862649 1.11198
5293.39 1.34261 1.33287 0.865898 1.11201
5293.82 1.33022 1.32563 0.869829 1.11204
5294.25 1.31564 1.31633 0.875496 1.11206
5294.69 1.30116 1.30492 0.881417 1.11209
5295.12 1.28809 1.29159 0.888175 1.11211
5295.55 1.27527 1.27683 0.895013 1.11214
5295.99 1.26155 1.26136 0.901929 1.11216
5296.42 1.24674 1.24609 0.908925 1.11218
5296.85 1.231 1.23201 0.915965 1.11221
5297.29 1.21515 1.22007 0.923087 1.11223
5297.72 1.20028 1.21102 0.929694 1.11225
5298.15 1.18806 1.2053 0.936354 1.11227
5298.59 1.18006 1.20293 0.940361 1.11229
5299.02 1.17671 1.20353 0.944077 1.11231
5299.46 1.1779 1.20652 0.945305 1.11233
5299.89 1.18268 1.21134 0.945985 1.11235
5300.32 1.18992 1.21764 0.94091 1.11237
5300.76 1.20032 1.22532 0.933926 1.11238
5301.19 1.21527 1.23445 0.927243 1.1124
5301.62 1.23368 1.24503 0.92074 1.11242
5302.06 1.25283 1.25688 0.914291 1.11244
5302.49 1.26918 1.26957 0.907898 1.11245
5302.93 1.27889 1.28248 0.900796 1.11247
5303.36 1.28431 1.29498 0.893069 1.11248
5303.79 1.29352 1.30653 0.885314 1.1125
5304.23 1.30991 1.3168 0.877505 1.11252
5304.66 1.33111 1.32562 0.870099 1.11253
5305.1 1.35305 1.33292 0.863289 1.11254
5305.53 1.3698 1.33875 0.857979 1.11256
5305.96 1.37767 1.34322 0.856054 1.11257
5306.4 1.37715 1.34654 0.854884 1.11259
5306.83 1.36997 1.34897 0.856299 1.1126
5307.27 1.35966 1.35084 0.857874 1.11261
5307.7 1.35004 1.35243 0.860327 1.11263
5308.13 1.3451 1.35393 0.862609 1.11264
5308.57 1.34704 1.35538 0.86279 1.11265
5309.0 1.35245 1.35672 0.86296 1.11267
5309.44 1.35747 1.35783 0.86167 1.11268
5309.87 1.36078 1.35863 0.860382 1.11269
5310.31 1.36184 1.35909 0.85894 1.1127
5310.74 1.36084 1.35915 0.857491 1.11272
5311.18 1.35835 1.35872 0.857311 1.11273
5311.61 1.35601 1.35763 0.85733 1.11274
5312.04 1.35563 1.35574 0.857208 1.11275
5312.48 1.35713 1.35295 0.857049 1.11277
5312.91 1.35956 1.34934 0.857133 1.11278
5313.35 1.36159 1.3451 0.857311 1.11279
5313.78 1.36176 1.34045 0.858258 1.1128
5314.22 1.35884 1.33557 0.859618 1.11282
5314.65 1.35188 1.33057 0.862637 1.11283
5315.09 1.34126 1.32549 0.866871 1.11284
5315.52 1.32842 1.32043 0.870976 1.11286
5315.96 1.31517 1.31559 0.874956 1.11287
5316.39 1.30365 1.31126 0.877596 1.11288
5316.83 1.29712 1.30778 0.878521 1.1129
5317.26 1.29996 1.30537 0.877923 1.11291
5317.7 1.31177 1.30403 0.87478 1.11292
5318.13 1.32531 1.30355 0.872231 1.11294
5318.57 1.33379 1.30352 0.871005 1.11295
5319.0 1.33203 1.30348 0.87136 1.11297
5319.44 1.31961 1.30298 0.876836 1.11298
5319.87 1.30547 1.30165 0.881592 1.113
5320.31 1.29657 1.29926 0.882567 1.11301
5320.74 1.29245 1.29571 0.883561 1.11303
5321.18 1.2914 1.29104 0.884718 1.11304
5321.61 1.29125 1.28539 0.88596 1.11306
5322.05 1.28986 1.27889 0.88958 1.11308
5322.49 1.28539 1.27164 0.893223 1.11309
5322.92 1.27679 1.2637 0.897303 1.11311
5323.36 1.26619 1.25508 0.901425 1.11313
5323.79 1.25632 1.24581 0.905819 1.11315
5324.23 1.24867 1.23592 0.910273 1.11317
5324.66 1.24365 1.22531 0.915054 1.11318
5325.1 1.23762 1.21376 0.919932 1.1132
5325.53 1.22584 1.20094 0.927933 1.11322
5325.97 1.20823 1.18666 0.936984 1.11325
5326.41 1.18702 1.17111 0.946992 1.11327
5326.84 1.16464 1.15506 0.957515 1.11329
5327.28 1.14361 1.13988 0.968783 1.11331
5327.71 1.12627 1.12728 0.98058 1.11333
5328.15 1.11476 1.11888 0.986846 1.11336
5328.59 1.10948 1.11578 0.988882 1.11338
5329.02 1.10934 1.11824 0.988655 1.11341
5329.46 1.11336 1.12578 0.986244 1.11343
5329.89 1.12072 1.13738 0.981709 1.11346
5330.33 1.13123 1.15185 0.974569 1.11348
5330.77 1.14541 1.16813 0.966753 1.11351
5331.2 1.16303 1.18536 0.957822 1.11354
5331.64 1.18277 1.20291 0.948947 1.11357
5332.07 1.20333 1.22024 0.940051 1.1136
5332.51 1.22363 1.23688 0.93128 1.11363
5332.95 1.24275 1.25241 0.922629 1.11366
5333.38 1.26021 1.26647 0.914209 1.11369
5333.82 1.27555 1.27876 0.906361 1.11372
5334.26 1.28827 1.28908 0.898899 1.11375
5334.69 1.29807 1.29732 0.893432 1.11378
5335.13 1.30504 1.30343 0.888206 1.11382
5335.57 1.30963 1.30746 0.885669 1.11385
5336.0 1.31311 1.30947 0.883134 1.11388
5336.44 1.31623 1.30954 0.878924 1.11392
5336.88 1.31709 1.30768 0.874743 1.11395
5337.31 1.31348 1.30387 0.874255 1.11399
5337.75 1.30493 1.29808 0.873982 1.11403
5338.19 1.29189 1.29036 0.878206 1.11406
5338.62 1.27731 1.28101 0.883061 1.1141
5339.06 1.26461 1.27064 0.888764 1.11414
5339.5 1.25437 1.26021 0.894698 1.11418
5339.93 1.24601 1.25087 0.899474 1.11422
5340.37 1.23938 1.24371 0.903908 1.11426
5340.81 1.23458 1.23947 0.906966 1.1143
5341.24 1.23222 1.23834 0.909442 1.11434
5341.68 1.23309 1.23999 0.909785 1.11438
5342.12 1.23714 1.24373 0.908942 1.11442
5342.56 1.24368 1.24882 0.907554 1.11447
5342.99 1.25193 1.25461 0.905779 1.11451
5343.43 1.26101 1.26058 0.903533 1.11455
5343.87 1.27001 1.26628 0.900864 1.1146
5344.3 1.2779 1.27126 0.898357 1.11464
5344.74 1.28384 1.27512 0.896033 1.11469
5345.18 1.28707 1.27765 0.894488 1.11474
5345.62 1.28727 1.27883 0.894064 1.11478
5346.05 1.28459 1.27884 0.894362 1.11483
5346.49 1.27963 1.27794 0.896002 1.11488
5346.93 1.2735 1.27639 0.89791 1.11493
5347.37 1.26732 1.27446 0.90046 1.11497
5347.8 1.26205 1.27251 0.902605 1.11502
5348.24 1.25855 1.27105 0.903407 1.11507
5348.68 1.25742 1.27071 0.903871 1.11512
5349.12 1.25915 1.27206 0.902784 1.11517
5349.55 1.26394 1.27543 0.901389 1.11523
5349.99 1.27167 1.28081 0.897777 1.11528
5350.43 1.28145 1.28782 0.894148 1.11533
5350.87 1.29228 1.29591 0.889995 1.11538
5351.3 1.30323 1.30454 0.885865 1.11544
5351.74 1.31342 1.31333 0.881203 1.11549
5352.18 1.32209 1.32211 0.876578 1.11555
5352.62 1.32875 1.33088 0.875715 1.1156
5353.06 1.33421 1.33967 0.875028 1.11566
5353.49 1.33961 1.34849 0.873039 1.11571
5353.93 1.346 1.35717 0.870914 1.11577
5354.37 1.35439 1.36544 0.867562 1.11583
5354.81 1.36603 1.37299 0.864006 1.11589
5355.25 1.38159 1.37956 0.857874 1.11594
5355.68 1.39659 1.38504 0.851129 1.116
5356.12 1.40474 1.38946 0.848233 1.11606
5356.56 1.40423 1.3929 0.846696 1.11612
5357.0 1.39608 1.39539 0.848603 1.11618
5357.44 1.38567 1.39687 0.852122 1.11624
5357.88 1.38056 1.39723 0.852703 1.1163
5358.31 1.38149 1.39639 0.851553 1.11637
5358.75 1.3844 1.39433 0.851121 1.11643
5359.19 1.38651 1.3911 0.851213 1.11649
5359.63 1.38624 1.38679 0.851944 1.11655
5360.07 1.38294 1.38151 0.853258 1.11662
5360.51 1.37684 1.3754 0.855066 1.11668
5360.95 1.369 1.36861 0.857431 1.11675
5361.38 1.36129 1.36134 0.86003 1.11681
5361.82 1.35454 1.3538 0.862953 1.11688
5362.26 1.34825 1.34613 0.866095 1.11694
5362.7 1.34064 1.33845 0.869607 1.11701
5363.14 1.3283 1.33078 0.87451 1.11708
5363.58 1.31173 1.3232 0.882437 1.11714
5364.02 1.29789 1.31588 0.888917 1.11721
5364.46 1.29178 1.30908 0.891158 1.11728
5364.89 1.29356 1.30309 0.892188 1.11735
5365.33 1.30074 1.29805 0.888803 1.11742
5365.77 1.30629 1.2938 0.886929 1.11749
5366.21 1.3049 1.28989 0.892616 1.11756
5366.65 1.297 1.28569 0.89822 1.11763
5367.09 1.28414 1.28063 0.902807 1.1177
5367.53 1.26862 1.27429 0.90735 1.11777
5367.97 1.25328 1.26646 0.910812 1.11785
5368.41 1.24244 1.25717 0.914316 1.11792
5368.85 1.23871 1.2467 0.919139 1.11799
5369.29 1.23717 1.23559 0.924 1.11806
5369.73 1.23225 1.2247 0.92792 1.11814
5370.16 1.22329 1.21517 0.931832 1.11821
5370.6 1.21196 1.20825 0.934837 1.11829
5371.04 1.20499 1.20505 0.937774 1.11836
5371.48 1.20896 1.20628 0.935985 1.11844
5371.92 1.21993 1.21206 0.933507 1.11852
5372.36 1.23082 1.2219 0.930125 1.11859
5372.8 1.23909 1.23487 0.926566 1.11867
5373.24 1.24471 1.24987 0.92217 1.11875
5373.68 1.25208 1.26583 0.917559 1.11882
5374.12 1.26686 1.28184 0.907926 1.1189
5374.56 1.28714 1.29717 0.896603 1.11898
5375.0 1.30703 1.31117 0.887484 1.11906
5375.44 1.32325 1.32326 0.879421 1.11914
5375.88 1.33432 1.33306 0.873372 1.11922
5376.32 1.34124 1.34047 0.868469 1.1193
5376.76 1.34653 1.34566 0.865478 1.11938
5377.2 1.35091 1.34903 0.863803 1.11946
5377.64 1.35359 1.351 0.862352 1.11954
5378.08 1.35422 1.35185 0.861089 1.11963
5378.52 1.35281 1.35171 0.860022 1.11971
5378.96 1.34975 1.35057 0.859151 1.11979
5379.4 1.34575 1.34847 0.859771 1.11988
5379.84 1.34116 1.34556 0.862198 1.11996
5380.28 1.3359 1.34207 0.864757 1.12004
5380.72 1.33014 1.33825 0.867506 1.12013
5381.16 1.32448 1.33429 0.87036 1.12021
5381.6 1.31997 1.3303 0.873391 1.1203
5382.04 1.31833 1.32638 0.876856 1.12038
5382.48 1.31933 1.32278 0.881236 1.12047
5382.92 1.31961 1.31986 0.885121 1.12056
5383.36 1.31686 1.31803 0.887642 1.12064
5383.8 1.31116 1.31753 0.889643 1.12073
5384.24 1.30447 1.31832 0.889898 1.12082
5384.68 1.30198 1.32002 0.889004 1.12091
5385.12 1.30666 1.32206 0.883235 1.121
5385.56 1.31547 1.32392 0.877857 1.12108
5386.01 1.32489 1.32521 0.874457 1.12117
5386.45 1.3324 1.32573 0.871397 1.12126
5386.89 1.33598 1.32537 0.871088 1.12135
5387.33 1.3345 1.32398 0.870917 1.12144
5387.77 1.32801 1.32137 0.872798 1.12153
5388.21 1.31985 1.31737 0.8747 1.12162
5388.65 1.3134 1.31196 0.877365 1.12172
5389.09 1.30974 1.30536 0.880043 1.12181
5389.53 1.30841 1.29802 0.88355 1.1219
5389.97 1.3048 1.29052 0.887097 1.12199
5390.41 1.29487 1.28338 0.889258 1.12209
5390.86 1.28264 1.27697 0.891335 1.12218
5391.3 1.27388 1.27137 0.892233 1.12227
5391.74 1.27067 1.26646 0.892999 1.12236
5392.18 1.2728 1.262 0.892345 1.12246
5392.62 1.27364 1.25773 0.891456 1.12255
5393.06 1.26555 1.25348 0.8992 1.12265
5393.5 1.25085 1.24919 0.909013 1.12274
5393.94 1.2358 1.24486 0.917096 1.12284
5394.38 1.22433 1.24046 0.924742 1.12293
5394.83 1.21874 1.23587 0.928637 1.12303
5395.27 1.21694 1.231 0.931192 1.12312
5395.71 1.21482 1.22586 0.933354 1.12322
5396.15 1.21153 1.22081 0.935348 1.12332
5396.59 1.20816 1.21655 0.936271 1.12341
5397.03 1.20576 1.21393 0.936642 1.12351
5397.48 1.20537 1.21366 0.935467 1.12361
5397.92 1.20815 1.21597 0.933363 1.1237
5398.36 1.21521 1.22056 0.929429 1.1238
5398.8 1.22587 1.22674 0.92423 1.1239
5399.24 1.23809 1.23373 0.91908 1.124
5399.68 1.24999 1.2409 0.913978 1.12409
5400.13 1.25994 1.24779 0.909305 1.12419
5400.57 1.2669 1.254 0.905036 1.12429
5401.01 1.27045 1.25897 0.903018 1.12439
5401.45 1.27116 1.26191 0.903482 1.12449
5401.89 1.27068 1.26198 0.904135 1.12459
5402.33 1.27005 1.25857 0.905034 1.12469
5402.78 1.26955 1.25155 0.905661 1.12479
5403.22 1.26728 1.24147 0.905878 1.12488
5403.66 1.25865 1.22943 0.909662 1.12498
5404.1 1.24245 1.21679 0.919776 1.12508
5404.55 1.22255 1.20489 0.92993 1.12518
5404.99 1.20295 1.19476 0.93998 1.12528
5405.43 1.18718 1.18705 0.94865 1.12538
5405.87 1.17716 1.18202 0.95369 1.12548
5406.31 1.1721 1.17963 0.95778 1.12558
5406.76 1.17104 1.17956 0.959048 1.12568
5407.2 1.17324 1.18136 0.959647 1.12579
5407.64 1.17796 1.18453 0.957927 1.12589
5408.08 1.18435 1.18864 0.955279 1.12599
5408.53 1.19145 1.19349 0.948695 1.12609
5408.97 1.19807 1.1991 0.942758 1.12619
5409.41 1.20383 1.20568 0.939978 1.12629
5409.85 1.21054 1.21347 0.937198 1.12639
5410.3 1.22008 1.22251 0.93434 1.12649
5410.74 1.23356 1.23259 0.931231 1.12659
5411.18 1.24974 1.24326 0.925473 1.12669
5411.63 1.26053 1.25396 0.919926 1.12679
5412.07 1.26027 1.26428 0.917045 1.1269
5412.51 1.25597 1.274 0.914109 1.127
5412.95 1.25704 1.28316 0.908472 1.1271
5413.4 1.27176 1.29188 0.902887 1.1272
5413.84 1.30349 1.30029 0.886442 1.1273
5414.28 1.33659 1.30841 0.870357 1.1274
5414.73 1.3544 1.31616 0.867106 1.1275
5415.17 1.35777 1.32337 0.86439 1.1276
5415.61 1.35294 1.32978 0.864663 1.12771
5416.05 1.34833 1.33512 0.865165 1.12781
5416.5 1.35099 1.33918 0.860431 1.12791
5416.94 1.35681 1.34184 0.855145 1.12801
5417.38 1.35887 1.34321 0.85202 1.12811
5417.83 1.35647 1.34354 0.849235 1.12821
5418.27 1.35132 1.34313 0.846939 1.12831
5418.71 1.34601 1.34221 0.844746 1.12841
5419.16 1.34295 1.34086 0.84091 1.12851
5419.6 1.34026 1.339 0.836705 1.12862
5420.04 1.33463 1.33655 0.835644 1.12872
5420.49 1.32646 1.33347 0.835483 1.12882
5420.93 1.31801 1.32982 0.836906 1.12892
5421.37 1.31236 1.32577 0.838872 1.12902
5421.82 1.3124 1.32147 0.841352 1.12912
5422.26 1.31485 1.31715 0.844045 1.12922
5422.71 1.31354 1.31314 0.846159 1.12932
5423.15 1.30838 1.30993 0.848013 1.12942
5423.59 1.30324 1.30808 0.849624 1.12952
5424.04 1.30403 1.30799 0.851112 1.12962
5424.48 1.31707 1.30969 0.853164 1.12972
5424.92 1.33557 1.31273 0.855553 1.12982
5425.37 1.34424 1.31629 0.858435 1.12992
5425.81 1.33866 1.31938 0.861651 1.13002
5426.26 1.32323 1.32115 0.864918 1.13012
5426.7 1.30782 1.32103 0.868226 1.13022
5427.14 1.30586 1.3187 0.868616 1.13032
5427.59 1.31578 1.31412 0.866611 1.13042
5428.03 1.32313 1.30753 0.867547 1.13051
5428.48 1.32025 1.29949 0.871176 1.13061
5428.92 1.30652 1.29086 0.877003 1.13071
5429.36 1.28561 1.28264 0.885123 1.13081
5429.81 1.26516 1.27564 0.893298 1.13091
5430.25 1.24981 1.27016 0.901518 1.131
5430.7 1.24074 1.26593 0.907231 1.1311
5431.14 1.23811 1.26232 0.909711 1.1312
5431.59 1.24109 1.25871 0.90999 1.1313
5432.03 1.24781 1.25485 0.907217 1.13139
5432.48 1.2552 1.25092 0.905297 1.13149
5432.92 1.26074 1.24737 0.904669 1.13159
5433.36 1.26275 1.24465 0.904559 1.13168
5433.81 1.26076 1.2431 0.905331 1.13178
5434.25 1.25594 1.24289 0.906609 1.13187
5434.7 1.25107 1.24417 0.908854 1.13197
5435.14 1.2511 1.24712 0.909338 1.13207
5435.59 1.25747 1.252 0.906092 1.13216
5436.03 1.26575 1.25903 0.902318 1.13225
5436.48 1.27258 1.2683 0.897284 1.13235
5436.92 1.27738 1.27963 0.891742 1.13244
5437.37 1.28224 1.29262 0.884807 1.13254
5437.81 1.29354 1.30665 0.875532 1.13263
5438.26 1.31339 1.32102 0.859339 1.13272
5438.7 1.33466 1.33501 0.844451 1.13282
5439.15 1.35098 1.34803 0.8328 1.13291
5439.59 1.35976 1.35965 0.822683 1.133
5440.04 1.36242 1.36959 0.817699 1.13309
5440.48 1.36811 1.37764 0.813026 1.13319
5440.93 1.38168 1.38362 0.809566 1.13328
5441.37 1.39545 1.38732 0.80671 1.13337
5441.82 1.40154 1.38848 0.806881 1.13346
5442.26 1.39602 1.38686 0.807894 1.13355
5442.71 1.37984 1.38223 0.814111 1.13364
5443.15 1.36524 1.3745 0.820294 1.13373
5443.6 1.36084 1.36382 0.825741 1.13382
5444.04 1.35996 1.35057 0.83151 1.13391
5444.49 1.35416 1.33542 0.83981 1.13399
5444.93 1.33779 1.31925 0.848733 1.13408
5445.38 1.30947 1.30309 0.863808 1.13417
5445.83 1.2796 1.28812 0.878712 1.13426
5446.27 1.25844 1.2755 0.884452 1.13434
5446.72 1.24787 1.26627 0.890051 1.13443
5447.16 1.2475 1.26109 0.890714 1.13452
5447.61 1.25511 1.26008 0.891249 1.1346
5448.05 1.26675 1.26285 0.885113 1.13469
5448.5 1.27341 1.26863 0.87904 1.13478
5448.95 1.26789 1.27651 0.816859 1.13486
5449.39 1.25526 1.28559 0.761032 1.13495
5449.84 1.24368 1.29504 0.65373 1.13503
5450.28 1.24154 1.304 0.566774 1.13511
5450.73 1.25381 1.3116 0.415196 1.1352
5451.18 1.26978 1.31702 0.315358 1.13528
5451.62 1.27677 1.31961 0.25748 1.13537
5452.07 1.2736 1.31901 0.214638 1.13545
5452.51 1.26298 1.31526 0.187339 1.13553
5452.96 1.25016 1.30871 0.165314 1.13561
5453.41 1.24051 1.30002 0.157742 1.1357
5453.85 1.23578 1.29007 0.151743 1.13578
5454.3 1.23621 1.27993 0.153943 1.13586
5454.74 1.24027 1.27088 0.157206 1.13594
5455.19 1.24565 1.26417 0.167278 1.13602
5455.64 1.24912 1.2608 0.179439 1.1361
5456.08 1.2483 1.26125 0.21145 1.13618
5456.53 1.24831 1.26534 0.257159 1.13626
5456.98 1.25597 1.27231 0.308454 1.13634
5457.42 1.27109 1.28104 0.374101 1.13642
5457.87 1.2901 1.29036 0.447575 1.1365
5458.32 1.30578 1.29926 0.540793 1.13658
5458.76 1.31083 1.30698 0.605744 1.13666
5459.21 1.30801 1.31302 0.667717 1.13674
5459.66 1.30398 1.31709 0.715421 1.13682
5460.1 1.30183 1.31901 0.761745 1.1369
5460.55 1.30273 1.31875 0.789304 1.13698
5461.0 1.30572 1.3164 0.811686 1.13705
5461.44 1.30884 1.31225 0.8245 1.13713
5461.89 1.31023 1.30687 0.834394 1.13721
5462.34 1.30824 1.30108 0.841241 1.13729
5462.78 1.30277 1.29587 0.847109 1.13736
5463.23 1.29473 1.29215 0.849653 1.13744
5463.68 1.28698 1.29048 0.851017 1.13752
5464.12 1.28305 1.29092 0.85055 1.13759
5464.57 1.28314 1.29307 0.849394 1.13767
5465.02 1.28564 1.29629 0.848555 1.13774
5465.47 1.28959 1.30005 0.847843 1.13782
5465.91 1.29453 1.30402 0.847638 1.13789
5466.36 1.30118 1.30806 0.84765 1.13797
5466.81 1.31074 1.31209 0.849022 1.13804
5467.26 1.32164 1.31584 0.851016 1.13812
5467.7 1.33069 1.31889 0.853339 1.13819
5468.15 1.33585 1.32074 0.855827 1.13827
5468.6 1.33605 1.32106 0.858619 1.13834
5469.04 1.33269 1.31987 0.861574 1.13842
5469.49 1.32871 1.31757 0.864444 1.13849
5469.94 1.32555 1.31481 0.867276 1.13856
5470.39 1.3236 1.31214 0.869107 1.13864
5470.83 1.32279 1.30981 0.870376 1.13871
5471.28 1.32267 1.30759 0.869487 1.13878
5471.73 1.32141 1.30496 0.867341 1.13886
5472.18 1.31642 1.30136 0.868246 1.13893
5472.63 1.30763 1.29649 0.871024 1.139
5473.07 1.29681 1.29042 0.874727 1.13907
5473.52 1.28591 1.28351 0.879039 1.13915
5473.97 1.27684 1.27614 0.88358 1.13922
5474.42 1.27034 1.26857 0.888287 1.13929
5474.86 1.2662 1.26091 0.892096 1.13936
5475.31 1.26332 1.25332 0.895278 1.13943
5475.76 1.2599 1.24626 0.897982 1.1395
5476.21 1.25427 1.24056 0.900341 1.13958
5476.66 1.24516 1.23711 0.902139 1.13965
5477.1 1.23673 1.23652 0.903518 1.13972
5477.55 1.23713 1.23874 0.900118 1.13979
5478.0 1.24734 1.24305 0.893095 1.13986
5478.45 1.262 1.24828 0.88437 1.13993
5478.9 1.27335 1.25331 0.874374 1.14
5479.35 1.27229 1.25741 0.868666 1.14007
5479.79 1.2614 1.26043 0.866393 1.14014
5480.24 1.25324 1.26276 0.863547 1.14021
5480.69 1.25342 1.26501 0.860227 1.14028
5481.14 1.26081 1.2678 0.856761 1.14035
5481.59 1.27028 1.27147 0.853174 1.14042
5482.04 1.27367 1.27607 0.85319 1.14049
5482.49 1.27198 1.28143 0.856436 1.14056
5482.93 1.27465 1.2873 0.858853 1.14063
5483.38 1.28585 1.29349 0.860498 1.1407
5483.83 1.30424 1.29979 0.861386 1.14077
5484.28 1.32388 1.30597 0.861557 1.14084
5484.73 1.33489 1.3116 0.863206 1.14091
5485.18 1.33418 1.31606 0.866294 1.14097
5485.63 1.32542 1.3186 0.869799 1.14104
5486.07 1.31257 1.31863 0.873723 1.14111
5486.52 1.29956 1.31629 0.878135 1.14118
5486.97 1.29133 1.31267 0.883049 1.14125
5487.42 1.29349 1.30886 0.884277 1.14132
5487.87 1.30476 1.30479 0.881695 1.14139
5488.32 1.31691 1.29922 0.0 1.14146
5488.77 1.3241 1.29311 0.0 1.14152
5489.22 1.32351 1.28805 0.0 1.14159
5489.67 1.31876 1.28478 0.0 1.14166
5490.12 1.3197 1.28332 0.0 1.14173
5490.57 1.32846 1.28333 0.0 1.1418
5491.01 1.33874 1.28432 0.0 1.14186
5491.46 1.34536 1.28556 0.0 1.14193
5491.91 1.34498 1.28595 0.0 1.142
5492.36 1.34166 1.28415 0.0 1.14207
5492.81 1.34692 1.27927 0.0 1.14214
5493.26 1.36241 1.27196 0.0 1.1422
5493.71 1.37883 1.26427 0.0 1.14227
5494.16 1.38691 1.25799 0.0 1.14234
5494.61 1.37851 1.25329 0.0 1.14241
5495.06 1.35677 1.24917 0.0 1.14247
5495.51 1.33686 1.24415 0.0 1.14254
5495.96 1.32624 1.23623 0.0 1.14261
5496.41 1.32318 1.22265 0.0 1.14268
5496.86 1.32386 1.20063 0.0 1.14274
5497.31 1.32281 1.16961 0.0 1.14281
5497.76 1.31909 1.13025 0.0 1.14288
5498.21 1.31689 1.08109 0.0 1.14295
5498.66 1.31807 1.01767 0.0 1.14301
5499.11 1.32173 0.935466 0.0 1.14308
5499.56 1.32688 0.834625 0.0 1.14315
