"v (km/s)" BF[g(v)]
-1001.26 0.000572753
-995.825 0.000293261
-990.392 0.000165016
-984.959 0.000107683
-979.526 8.43635e-05
-974.093 7.91995e-05
-968.66 8.55514e-05
-963.227 0.000100422
-957.794 0.000121764
-952.361 0.000147614
-946.927 0.000176341
-941.494 0.000206551
-936.06 0.000236465
-930.626 0.00026336
-925.192 0.000283301
-919.758 0.000293407
-914.324 0.000295203
-908.89 0.000293999
-903.456 0.000296607
-898.022 0.000305853
-892.587 0.00031477
-887.153 0.000312965
-881.718 0.000296689
-876.283 0.000271117
-870.848 0.000248289
-865.413 0.000235687
-859.978 0.000229412
-854.543 0.000220867
-849.108 0.000202334
-843.673 0.000170534
-838.237 0.000129996
-832.802 8.8825e-05
-827.366 5.36621e-05
-821.93 2.82424e-05
-816.494 1.27248e-05
-811.059 4.6882e-06
-805.623 1.20023e-06
-800.186 8.66173e-08
-794.75 9.59615e-08
-789.314 5.73652e-07
-783.877 1.124e-06
-778.441 1.51727e-06
-773.004 1.70144e-06
-767.568 1.75371e-06
-762.131 1.75001e-06
-756.694 1.66725e-06
-751.257 1.37475e-06
-745.82 7.68099e-07
-740.382 9.7277e-08
-734.945 3.2976e-07
-729.508 3.22421e-06
-724.07 1.10738e-05
-718.633 2.56877e-05
-713.195 4.65197e-05
-707.757 6.91282e-05
-702.319 8.64862e-05
-696.881 9.37981e-05
-691.443 9.10302e-05
-686.005 8.13311e-05
-680.567 6.85025e-05
-675.128 5.52077e-05
-669.69 4.2896e-05
-664.251 3.21492e-05
-658.812 2.31355e-05
-653.374 1.59237e-05
-647.935 1.05073e-05
-642.496 6.82341e-06
-637.057 4.62433e-06
-631.618 3.55605e-06
-626.178 3.38338e-06
-620.739 4.12716e-06
-615.299 6.21634e-06
-609.86 1.07011e-05
-604.42 1.94362e-05
-598.98 3.49111e-05
-593.54 5.93195e-05
-588.1 9.29625e-05
-582.66 0.000133134
-577.22 0.000174829
-571.78 0.000213163
-566.34 0.000246388
-560.899 0.000275312
-555.458 0.000299974
-550.018 0.00031779
-544.577 0.000322267
-539.136 0.000308589
-533.695 0.000282042
-528.254 0.000253353
-522.813 0.000231717
-517.372 0.000221811
-511.93 0.000221689
-506.489 0.000226827
-501.047 0.000235067
-495.606 0.000247049
-490.164 0.000264482
-484.722 0.000288762
-479.28 0.000318328
-473.838 0.000347836
-468.396 0.000372376
-462.954 0.000389569
-457.511 0.000402619
-452.069 0.000419983
-446.626 0.000449247
-441.184 0.000496251
-435.741 0.000562732
-430.298 0.000644435
-424.855 0.000733531
-419.412 0.000817009
-413.969 0.000880496
-408.526 0.000915965
-403.082 0.000932333
-397.639 0.000955853
-392.195 0.00101864
-386.752 0.00115154
-381.308 0.00135743
-375.864 0.0015992
-370.42 0.00182024
-364.976 0.00196507
-359.532 0.00203751
-354.088 0.00209778
-348.643 0.0021936
-343.199 0.00235685
-337.754 0.00259315
-332.31 0.00288131
-326.865 0.00319257
-321.42 0.00348396
-315.975 0.00372071
-310.53 0.00388668
-305.085 0.0040048
-299.64 0.00413302
-294.195 0.00431154
-288.749 0.00456339
-283.304 0.00489049
-277.858 0.00526766
-272.412 0.0056552
-266.966 0.00599712
-261.521 0.00623924
-256.075 0.00636331
-250.628 0.00642357
-245.182 0.00652407
-239.736 0.00673886
-234.289 0.00708616
-228.843 0.00752016
-223.396 0.00792789
-217.95 0.00822052
-212.503 0.00837048
-207.056 0.00838879
-201.609 0.00839531
-196.162 0.00855248
-190.715 0.00902115
-185.267 0.00985992
-179.82 0.0108602
-174.372 0.0114575
-168.925 0.0110176
-163.477 0.0095996
-158.029 0.00814095
-152.581 0.00787917
-147.133 0.0105896
-141.685 0.0221184
-136.237 0.0118518
-130.789 0.00923245
-125.34 0.00960438
-119.892 0.0113431
-114.443 0.0131635
-108.995 0.0140615
-103.546 0.0139184
-98.097 0.0133264
-92.648 0.0128363
-87.1989 0.0126414
-81.7497 0.0127041
-76.3004 0.0129442
-70.851 0.013338
-65.4015 0.0138302
-59.952 0.0142159
-54.5023 0.014202
-49.0525 0.0136335
-43.6026 0.0128682
-38.1526 0.0125308
-32.7026 0.0128334
-27.2524 0.0134693
-21.8021 0.0138743
-16.3517 0.0136683
-10.9012 0.0130244
-5.45067 0.0124515
-1.13164e-09 0.0123859
5.45077 0.012664
10.9016 0.0126859
16.3526 0.0122751
21.8037 0.0116053
27.2549 0.0110679
32.7061 0.0109814
38.1575 0.0112193
43.609 0.0114567
49.0605 0.011504
54.5122 0.0113465
59.9639 0.0110307
65.4158 0.0105678
70.8678 0.00998009
76.3198 0.00938423
81.772 0.00902113
87.2242 0.00911773
92.6766 0.00965145
98.1291 0.0101863
103.582 0.00992968
109.034 0.00840654
114.487 0.00621241
119.94 0.0045526
125.393 0.00431654
130.846 0.00701734
136.299 0.0210265
141.752 0.00527785
147.206 0.00285252
152.659 0.00294593
158.113 0.00403483
163.566 0.00535125
169.02 0.00600286
174.474 0.00568096
179.928 0.00483434
185.382 0.00401983
190.836 0.00349397
196.29 0.00326451
201.745 0.00324315
207.199 0.00331034
212.654 0.00334452
218.108 0.00326145
223.563 0.00305813
229.018 0.00278788
234.473 0.00250701
239.928 0.00225794
245.383 0.00206236
250.838 0.00191669
256.293 0.00179729
261.749 0.00168165
267.204 0.00155985
272.66 0.0014324
278.116 0.00130165
283.572 0.00117681
289.028 0.00106586
294.484 0.000969563
299.94 0.000882514
305.396 0.000801964
310.852 0.00072823
316.309 0.000661817
321.765 0.000602588
327.222 0.000550953
332.679 0.000505307
338.135 0.000461783
343.592 0.000417837
349.049 0.000372739
354.506 0.000327581
359.964 0.000284963
365.421 0.00024847
370.878 0.000220102
376.336 0.000200257
381.793 0.000188791
387.251 0.000184821
392.709 0.000187242
398.167 0.00019503
403.625 0.000207007
409.083 0.000220958
414.541 0.000233964
420.0 0.00024268
425.458 0.000243054
430.916 0.000231242
436.375 0.000205455
441.834 0.000167442
447.293 0.000122478
452.751 7.85011e-05
458.21 4.2933e-05
463.67 1.93355e-05
469.129 6.69723e-06
474.588 1.49672e-06
480.048 9.40952e-08
485.507 5.23755e-08
490.967 2.32068e-07
496.426 2.99063e-07
501.886 2.51693e-07
507.346 1.61433e-07
512.806 7.94496e-08
518.266 2.6245e-08
523.726 2.88247e-09
529.187 1.37678e-09
534.647 1.1672e-08
540.107 2.52879e-08
545.568 3.68188e-08
551.029 4.42231e-08
556.49 4.7922e-08
561.95 4.94563e-08
567.411 5.03774e-08
572.873 5.16932e-08
578.334 5.37744e-08
583.795 5.65359e-08
589.256 5.96841e-08
594.718 6.27557e-08
600.179 6.47138e-08
605.641 6.291e-08
611.103 5.23515e-08
616.565 2.90685e-08
622.027 3.16508e-09
627.489 1.45481e-08
632.951 1.11243e-07
638.413 2.59855e-07
643.876 2.85163e-07
649.338 6.89169e-08
654.801 2.09517e-07
660.263 3.08484e-06
665.726 1.35243e-05
671.189 3.71599e-05
676.652 7.51289e-05
682.115 0.000118627
687.578 0.000150575
693.042 0.000155999
698.505 0.000132787
703.968 9.26671e-05
709.432 5.20831e-05
714.896 2.24642e-05
720.359 6.64745e-06
725.823 9.74168e-07
731.287 2.52174e-09
736.751 9.63908e-08
742.216 7.99581e-08
747.68 6.91692e-09
753.144 1.47947e-08
758.609 6.26687e-08
764.073 8.62039e-08
769.538 7.74124e-08
775.003 5.5577e-08
780.467 3.53632e-08
785.932 2.14407e-08
791.397 1.32356e-08
796.863 8.93351e-09
802.328 7.1302e-09
807.793 7.17651e-09
813.259 9.2212e-09
818.724 1.43596e-08
824.19 2.48704e-08
829.656 4.40106e-08
835.122 7.44403e-08
840.588 1.13891e-07
846.054 1.47602e-07
851.52 1.45152e-07
856.986 8.5271e-08
862.452 1.18447e-08
867.919 9.77796e-09
873.385 2.33748e-08
878.852 3.79791e-08
884.319 1.3413e-06
889.786 7.9028e-06
895.253 2.55262e-05
900.72 5.84489e-05
906.187 0.000105894
911.654 0.000161844
917.121 0.000218372
922.589 0.000269254
928.056 0.000310859
933.524 0.000341595
938.992 0.000360002
944.46 0.000363331
949.928 0.000348739
955.396 0.000317097
960.864 0.000274293
966.332 0.000228943
971.8 0.000190145
977.269 0.000165185
982.737 0.000159417
988.206 0.000179433
993.675 0.000239368
999.143 0.000368874
1004.61 0.00062178
